File: rawdata/empty_7
empty
Furnace temperature 	Time	HeatFlow
/°C	/s	/mW
64.91	0	0.22
66.83	11	0.20
67.93	21	0.10
67.87	32	0.00
67.86	42	-0.06
67.75	53	-0.09
67.63	63	-0.10
67.48	74	-0.09
67.32	84	-0.08
67.15	95	-0.07
66.97	105	-0.07
66.78	116	-0.07
66.59	126	-0.07
66.39	137	-0.09
66.19	147	-0.11
65.99	158	-0.14
65.90	168	-0.17
65.69	179	-0.19
65.50	189	-0.22
65.31	200	-0.25
65.10	210	-0.29
64.89	221	-0.31
64.68	231	-0.34
64.47	242	-0.37
64.25	252	-0.39
64.04	263	-0.42
63.82	273	-0.44
63.60	284	-0.47
63.38	294	-0.48
63.16	305	-0.51
62.95	315	-0.52
62.73	326	-0.54
62.51	336	-0.56
62.29	347	-0.57
62.07	357	-0.59
61.85	368	-0.60
61.64	378	-0.61
61.42	389	-0.62
61.20	399	-0.63
60.99	410	-0.64
60.77	420	-0.64
60.55	431	-0.65
60.34	441	-0.65
60.12	452	-0.66
59.90	462	-0.66
59.69	473	-0.67
59.47	483	-0.67
59.26	494	-0.67
59.05	504	-0.67
58.83	515	-0.67
58.62	525	-0.67
58.40	536	-0.67
58.19	546	-0.68
57.97	557	-0.68
57.76	567	-0.67
57.55	578	-0.68
57.33	588	-0.68
57.12	599	-0.68
56.90	609	-0.68
56.69	620	-0.68
56.48	630	-0.68
56.26	641	-0.68
56.05	651	-0.68
55.84	662	-0.68
55.62	672	-0.68
55.41	683	-0.68
55.20	693	-0.68
54.98	704	-0.69
54.77	714	-0.68
54.56	725	-0.69
54.34	735	-0.69
54.13	746	-0.69
53.92	756	-0.69
53.71	767	-0.69
53.49	777	-0.69
53.28	788	-0.69
53.07	798	-0.69
52.86	809	-0.69
52.64	819	-0.69
52.43	830	-0.70
52.22	840	-0.70
52.00	851	-0.69
51.79	861	-0.69
51.58	872	-0.70
51.37	882	-0.70
51.15	893	-0.70
50.94	903	-0.70
50.73	914	-0.70
50.52	924	-0.70
50.30	935	-0.70
50.09	945	-0.71
49.88	956	-0.71
49.66	966	-0.71
49.45	977	-0.71
49.24	987	-0.71
49.03	998	-0.71
48.81	1008	-0.71
48.60	1019	-0.71
48.39	1029	-0.72
48.18	1040	-0.72
47.96	1050	-0.72
47.75	1061	-0.72
47.54	1071	-0.72
47.33	1082	-0.72
47.11	1092	-0.73
46.90	1103	-0.73
46.69	1113	-0.73
46.47	1124	-0.73
46.26	1134	-0.73
46.05	1145	-0.73
45.84	1155	-0.73
45.63	1166	-0.74
45.41	1176	-0.74
45.20	1187	-0.74
44.99	1197	-0.74
44.78	1208	-0.74
44.56	1218	-0.74
44.35	1229	-0.75
44.14	1239	-0.75
43.92	1250	-0.75
43.71	1260	-0.75
43.50	1271	-0.75
43.29	1281	-0.75
43.07	1292	-0.76
42.86	1302	-0.76
42.65	1313	-0.76
42.44	1323	-0.76
42.22	1334	-0.76
42.01	1344	-0.76
41.80	1355	-0.77
41.59	1365	-0.77
41.38	1376	-0.77
41.16	1386	-0.77
40.95	1397	-0.77
40.74	1407	-0.78
40.53	1418	-0.78
40.31	1428	-0.78
40.10	1439	-0.78
39.89	1449	-0.78
39.68	1460	-0.78
39.46	1470	-0.79
39.25	1481	-0.79
39.04	1491	-0.79
38.83	1502	-0.79
38.61	1512	-0.79
38.40	1523	-0.79
38.19	1533	-0.79
37.98	1544	-0.80
37.76	1554	-0.80
37.55	1565	-0.80
37.34	1575	-0.80
37.13	1586	-0.80
36.91	1596	-0.81
36.70	1607	-0.81
36.49	1617	-0.81
36.28	1628	-0.81
36.06	1638	-0.81
35.85	1649	-0.81
35.64	1659	-0.82
35.43	1670	-0.82
35.21	1680	-0.82
35.00	1691	-0.82
34.79	1701	-0.82
34.58	1712	-0.82
34.36	1722	-0.83
34.15	1733	-0.83
33.94	1743	-0.83
33.73	1754	-0.83
33.51	1764	-0.83
33.30	1775	-0.83
33.09	1785	-0.84
32.88	1796	-0.84
32.66	1806	-0.84
32.45	1817	-0.84
32.24	1827	-0.84
32.03	1838	-0.84
31.82	1848	-0.85
31.60	1859	-0.85
31.39	1869	-0.85
31.18	1880	-0.85
30.97	1890	-0.85
30.75	1901	-0.85
30.54	1911	-0.85
30.33	1922	-0.85
30.12	1932	-0.85
29.90	1943	-0.86
29.69	1953	-0.86
29.47	1964	-0.86
29.26	1974	-0.86
29.05	1985	-0.86
28.84	1995	-0.86
28.63	2006	-0.86
28.41	2016	-0.87
28.20	2027	-0.87
27.99	2037	-0.87
27.78	2048	-0.87
27.57	2058	-0.87
27.35	2069	-0.87
27.14	2079	-0.87
26.93	2090	-0.87
26.72	2100	-0.87
26.50	2111	-0.88
26.29	2121	-0.88
26.08	2132	-0.88
25.87	2142	-0.88
25.66	2153	-0.88
25.44	2163	-0.89
25.23	2174	-0.89
25.02	2184	-0.89
24.81	2195	-0.89
24.60	2205	-0.89
24.38	2216	-0.90
24.17	2226	-0.90
23.96	2237	-0.90
23.75	2247	-0.90
23.54	2258	-0.90
23.32	2268	-0.90
23.11	2279	-0.90
22.90	2289	-0.91
22.69	2300	-0.90
22.48	2310	-0.91
22.26	2321	-0.91
22.05	2331	-0.91
21.84	2342	-0.91
21.63	2352	-0.91
21.42	2363	-0.91
21.20	2373	-0.91
20.99	2384	-0.92
20.78	2394	-0.92
20.57	2405	-0.92
20.36	2415	-0.92
20.14	2426	-0.92
19.93	2436	-0.92
19.72	2447	-0.92
19.51	2457	-0.92
19.30	2468	-0.92
19.08	2478	-0.93
18.87	2489	-0.93
18.66	2499	-0.93
18.45	2510	-0.93
18.24	2520	-0.93
18.03	2531	-0.93
17.81	2541	-0.93
17.60	2552	-0.93
17.39	2562	-0.94
17.18	2573	-0.94
16.97	2583	-0.94
16.75	2594	-0.94
16.54	2604	-0.94
16.33	2615	-0.94
16.12	2625	-0.94
15.91	2636	-0.94
15.70	2646	-0.94
15.49	2657	-0.94
15.28	2667	-0.95
15.06	2678	-0.95
14.85	2688	-0.95
14.64	2699	-0.95
14.43	2709	-0.95
14.22	2720	-0.95
14.01	2730	-0.95
13.80	2741	-0.95
13.59	2751	-0.95
13.38	2762	-0.95
13.16	2772	-0.96
12.95	2783	-0.96
12.74	2793	-0.96
12.53	2804	-0.96
12.32	2814	-0.96
12.11	2825	-0.96
11.90	2835	-0.96
11.69	2846	-0.96
11.48	2856	-0.96
11.27	2867	-0.96
11.06	2877	-0.96
10.86	2888	-0.95
10.65	2898	-0.95
10.44	2909	-0.95
10.23	2919	-0.95
10.02	2930	-0.94
9.82	2940	-0.94
9.61	2951	-0.94
9.40	2961	-0.93
9.19	2972	-0.93
8.99	2982	-0.92
8.78	2993	-0.91
8.65	3000	-0.91