File: rawdata/empty_5
empty
Furnace temperature 	Time	HeatFlow
/°C	/s	/mW
64.80	0	0.23
66.79	11	0.21
67.90	21	0.11
67.85	32	0.01
67.85	42	-0.06
67.75	53	-0.09
67.62	63	-0.11
67.48	74	-0.10
67.32	84	-0.10
67.14	95	-0.09
66.96	105	-0.09
66.78	116	-0.09
66.58	126	-0.10
66.39	137	-0.12
66.19	147	-0.14
65.99	158	-0.16
65.90	168	-0.19
65.69	179	-0.22
65.50	189	-0.26
65.31	200	-0.29
65.10	210	-0.32
64.89	221	-0.35
64.68	231	-0.38
64.46	242	-0.40
64.25	252	-0.43
64.03	263	-0.45
63.81	273	-0.48
63.59	284	-0.50
63.38	294	-0.52
63.16	305	-0.55
62.94	315	-0.56
62.72	326	-0.58
62.51	336	-0.59
62.29	347	-0.61
62.07	357	-0.62
61.85	368	-0.63
61.63	378	-0.65
61.42	389	-0.65
61.20	399	-0.66
60.98	410	-0.67
60.77	420	-0.67
60.55	431	-0.68
60.33	441	-0.68
60.12	452	-0.68
59.90	462	-0.69
59.69	473	-0.69
59.47	483	-0.69
59.26	494	-0.69
59.05	504	-0.69
58.83	515	-0.70
58.62	525	-0.69
58.40	536	-0.70
58.19	546	-0.70
57.97	557	-0.70
57.76	567	-0.70
57.54	578	-0.69
57.33	588	-0.69
57.12	599	-0.70
56.90	609	-0.70
56.69	620	-0.70
56.48	630	-0.70
56.26	641	-0.70
56.05	651	-0.70
55.84	662	-0.70
55.62	672	-0.70
55.41	683	-0.70
55.20	693	-0.70
54.98	704	-0.70
54.77	714	-0.70
54.56	725	-0.70
54.35	735	-0.70
54.13	746	-0.70
53.92	756	-0.70
53.71	767	-0.70
53.49	777	-0.70
53.28	788	-0.71
53.07	798	-0.71
52.86	809	-0.71
52.64	819	-0.71
52.43	830	-0.71
52.22	840	-0.70
52.01	851	-0.71
51.79	861	-0.71
51.58	872	-0.71
51.37	882	-0.71
51.15	893	-0.71
50.94	903	-0.72
50.73	914	-0.72
50.52	924	-0.71
50.30	935	-0.72
50.09	945	-0.72
49.88	956	-0.72
49.67	966	-0.72
49.45	977	-0.72
49.24	987	-0.73
49.03	998	-0.73
48.81	1008	-0.73
48.60	1019	-0.73
48.39	1029	-0.73
48.18	1040	-0.73
47.96	1050	-0.73
47.75	1061	-0.73
47.54	1071	-0.74
47.33	1082	-0.74
47.11	1092	-0.74
46.90	1103	-0.74
46.69	1113	-0.74
46.48	1124	-0.74
46.27	1134	-0.74
46.05	1145	-0.75
45.84	1155	-0.75
45.63	1166	-0.75
45.42	1176	-0.75
45.20	1187	-0.75
44.99	1197	-0.75
44.78	1208	-0.75
44.57	1218	-0.75
44.35	1229	-0.76
44.14	1239	-0.76
43.93	1250	-0.76
43.71	1260	-0.76
43.50	1271	-0.77
43.29	1281	-0.76
43.08	1292	-0.77
42.86	1302	-0.77
42.65	1313	-0.77
42.44	1323	-0.77
42.23	1334	-0.78
42.01	1344	-0.78
41.80	1355	-0.78
41.59	1365	-0.78
41.38	1376	-0.78
41.16	1386	-0.78
40.95	1397	-0.78
40.74	1407	-0.79
40.52	1418	-0.78
40.31	1428	-0.79
40.10	1439	-0.79
39.89	1449	-0.79
39.68	1460	-0.79
39.46	1470	-0.80
39.25	1481	-0.80
39.04	1491	-0.80
38.82	1502	-0.80
38.61	1512	-0.80
38.40	1523	-0.80
38.19	1533	-0.80
37.98	1544	-0.81
37.76	1554	-0.81
37.55	1565	-0.81
37.34	1575	-0.81
37.12	1586	-0.81
36.91	1596	-0.81
36.70	1607	-0.81
36.49	1617	-0.82
36.28	1628	-0.82
36.06	1638	-0.82
35.85	1649	-0.83
35.64	1659	-0.83
35.43	1670	-0.83
35.21	1680	-0.83
35.00	1691	-0.83
34.79	1701	-0.83
34.58	1712	-0.83
34.36	1722	-0.83
34.15	1733	-0.83
33.94	1743	-0.83
33.73	1754	-0.84
33.52	1764	-0.84
33.30	1775	-0.84
33.09	1785	-0.84
32.87	1796	-0.84
32.65	1806	-0.85
32.44	1817	-0.85
32.23	1827	-0.85
32.01	1838	-0.85
31.80	1848	-0.85
31.59	1859	-0.85
31.38	1869	-0.85
31.17	1880	-0.86
30.96	1890	-0.86
30.75	1901	-0.86
30.53	1911	-0.85
30.32	1922	-0.85
30.11	1932	-0.86
29.90	1943	-0.86
29.68	1953	-0.86
29.47	1964	-0.86
29.26	1974	-0.87
29.05	1985	-0.87
28.84	1995	-0.87
28.63	2006	-0.87
28.41	2016	-0.87
28.20	2027	-0.88
27.99	2037	-0.88
27.78	2048	-0.88
27.57	2058	-0.88
27.35	2069	-0.88
27.14	2079	-0.88
26.93	2090	-0.88
26.72	2100	-0.88
26.51	2111	-0.88
26.29	2121	-0.89
26.08	2132	-0.89
25.87	2142	-0.89
25.66	2153	-0.89
25.44	2163	-0.89
25.23	2174	-0.90
25.02	2184	-0.90
24.81	2195	-0.90
24.59	2205	-0.90
24.38	2216	-0.90
24.17	2226	-0.90
23.96	2237	-0.90
23.75	2247	-0.90
23.53	2258	-0.91
23.32	2268	-0.91
23.11	2279	-0.91
22.90	2289	-0.91
22.69	2300	-0.91
22.48	2310	-0.91
22.26	2321	-0.92
22.05	2331	-0.91
21.84	2342	-0.92
21.63	2352	-0.91
21.41	2363	-0.92
21.20	2373	-0.92
20.99	2384	-0.92
20.78	2394	-0.92
20.57	2405	-0.92
20.35	2415	-0.92
20.14	2426	-0.93
19.93	2436	-0.92
19.72	2447	-0.93
19.51	2457	-0.93
19.29	2468	-0.93
19.08	2478	-0.93
18.87	2489	-0.93
18.66	2499	-0.93
18.45	2510	-0.93
18.23	2520	-0.94
18.02	2531	-0.94
17.81	2541	-0.94
17.60	2552	-0.94
17.39	2562	-0.94
17.18	2573	-0.94
16.96	2583	-0.94
16.75	2594	-0.94
16.54	2604	-0.94
16.33	2615	-0.94
16.12	2625	-0.95
15.91	2636	-0.95
15.70	2646	-0.95
15.48	2657	-0.95
15.27	2667	-0.95
15.06	2678	-0.95
14.85	2688	-0.95
14.64	2699	-0.95
14.43	2709	-0.95
14.22	2720	-0.95
14.00	2730	-0.96
13.79	2741	-0.96
13.58	2751	-0.96
13.37	2762	-0.96
13.16	2772	-0.96
12.95	2783	-0.96
12.74	2793	-0.96
12.53	2804	-0.96
12.32	2814	-0.96
12.11	2825	-0.96
11.90	2835	-0.96
11.69	2846	-0.96
11.48	2856	-0.96
11.27	2867	-0.96
11.06	2877	-0.96
10.85	2888	-0.96
10.64	2898	-0.97
10.43	2909	-0.96
10.22	2919	-0.96
10.01	2930	-0.96
9.80	2940	-0.96
9.60	2951	-0.96
9.39	2961	-0.95
9.18	2972	-0.95
8.97	2982	-0.94
8.77	2993	-0.93
8.63	3000	-0.93