File: rawdata/empty_6
empty
Furnace temperature 	Time	HeatFlow
/°C	/s	/mW
8.08	0	-0.92
7.64	26	-0.91
6.84	51	-0.85
6.10	77	-0.69
5.71	102	-0.54
5.57	128	-0.43
5.57	153	-0.34
5.34	179	-0.24
5.04	204	-0.13
5.06	230	-0.02
5.28	255	0.08
5.56	281	0.16
5.86	306	0.23
6.16	332	0.27
6.45	357	0.31
6.73	383	0.33
7.00	408	0.34
7.26	434	0.35
7.52	459	0.35
7.76	485	0.35
8.00	510	0.35
8.24	536	0.35
8.47	561	0.35
8.70	587	0.35
8.92	612	0.35
9.15	638	0.35
9.37	663	0.35
9.59	689	0.34
9.81	714	0.34
10.03	740	0.34
10.25	765	0.34
10.47	791	0.34
10.68	816	0.34
10.90	842	0.34
11.12	867	0.34
11.33	893	0.34
11.55	918	0.34
11.76	944	0.34
11.98	969	0.34
12.20	995	0.34
12.41	1020	0.34
12.63	1046	0.34
12.84	1071	0.34
13.06	1097	0.34
13.27	1122	0.34
13.49	1148	0.34
13.71	1173	0.34
13.92	1199	0.34
14.14	1224	0.34
14.35	1250	0.33
14.57	1275	0.33
14.78	1301	0.33
15.00	1326	0.33
15.21	1352	0.33
15.43	1377	0.33
15.64	1403	0.33
15.86	1428	0.33
16.07	1454	0.33
16.29	1479	0.33
16.51	1505	0.33
16.72	1530	0.33
16.94	1556	0.33
17.15	1581	0.33
17.37	1607	0.33
17.58	1632	0.33
17.80	1658	0.33
18.01	1683	0.33
18.23	1709	0.33
18.44	1734	0.33
18.66	1760	0.33
18.87	1785	0.33
19.09	1811	0.33
19.30	1836	0.32
19.52	1862	0.32
19.73	1887	0.32
19.95	1913	0.32
20.16	1938	0.32
20.38	1964	0.32
20.60	1989	0.32
20.81	2015	0.32
21.02	2040	0.32
21.24	2066	0.32
21.46	2091	0.32
21.67	2117	0.32
21.89	2142	0.32
22.10	2168	0.32
22.32	2193	0.32
22.53	2219	0.32
22.75	2244	0.32
22.96	2270	0.32
23.18	2295	0.31
23.39	2321	0.31
23.61	2346	0.31
23.82	2372	0.31
24.04	2397	0.31
24.25	2423	0.31
24.47	2448	0.31
24.68	2474	0.31
24.90	2499	0.31
25.11	2525	0.31
25.33	2550	0.31
25.54	2576	0.31
25.76	2601	0.30
25.97	2627	0.30
26.19	2652	0.30
26.40	2678	0.30
26.62	2703	0.30
26.84	2729	0.30
27.05	2754	0.30
27.27	2780	0.30
27.48	2805	0.30
27.70	2831	0.30
27.91	2856	0.30
28.13	2882	0.30
28.34	2907	0.30
28.56	2933	0.29
28.77	2958	0.29
28.99	2984	0.29
29.20	3009	0.29
29.42	3035	0.29
29.63	3060	0.29
29.85	3086	0.29
30.06	3111	0.29
30.28	3137	0.29
30.49	3162	0.29
30.71	3188	0.29
30.92	3213	0.29
31.14	3239	0.28
31.35	3264	0.28
31.57	3290	0.28
31.78	3315	0.28
32.00	3341	0.28
32.21	3366	0.28
32.43	3392	0.28
32.64	3417	0.28
32.86	3443	0.28
33.07	3468	0.28
33.29	3494	0.28
33.50	3519	0.28
33.72	3545	0.28
33.93	3570	0.28
34.15	3596	0.28
34.36	3621	0.28
34.58	3647	0.27
34.79	3672	0.27
35.01	3698	0.27
35.22	3723	0.27
35.44	3749	0.27
35.65	3774	0.27
35.87	3800	0.27
36.08	3825	0.27
36.30	3851	0.27
36.52	3876	0.27
36.73	3902	0.27
36.95	3927	0.27
37.16	3953	0.27
37.38	3978	0.27
37.59	4004	0.27
37.81	4029	0.27
38.02	4055	0.27
38.24	4080	0.27
38.45	4106	0.27
38.67	4131	0.27
38.88	4157	0.26
39.10	4182	0.26
39.31	4208	0.26
39.53	4233	0.26
39.74	4259	0.26
39.97	4284	0.26
40.18	4310	0.26
40.40	4335	0.26
40.61	4361	0.26
40.82	4386	0.26
41.04	4412	0.26
41.25	4437	0.26
41.46	4463	0.25
41.68	4488	0.25
41.89	4514	0.25
42.11	4539	0.25
42.32	4565	0.25
42.54	4590	0.25
42.75	4616	0.25
42.97	4641	0.25
43.18	4667	0.25
43.40	4692	0.25
43.61	4718	0.25
43.83	4743	0.25
44.05	4769	0.25
44.26	4794	0.25
44.48	4820	0.25
44.69	4845	0.25
44.90	4871	0.25
45.12	4896	0.25
45.33	4922	0.25
45.55	4947	0.25
45.76	4973	0.25
45.98	4998	0.25
46.19	5024	0.25
46.41	5049	0.25
46.62	5075	0.25
46.84	5100	0.25
47.05	5126	0.25
47.27	5151	0.25
47.48	5177	0.25
47.70	5202	0.25
47.92	5228	0.25
48.13	5253	0.25
48.34	5279	0.25
48.56	5304	0.25
48.78	5330	0.25
48.99	5355	0.25
49.20	5381	0.25
49.42	5406	0.25
49.64	5432	0.25
49.85	5457	0.25
50.07	5483	0.25
50.28	5508	0.25
50.49	5534	0.25
50.71	5559	0.25
50.93	5585	0.25
51.14	5610	0.25
51.35	5636	0.25
51.57	5661	0.25
51.78	5687	0.25
52.00	5712	0.25
52.22	5738	0.25
52.43	5763	0.25
52.65	5789	0.25
52.86	5814	0.25
53.07	5840	0.25
53.29	5865	0.25
53.51	5891	0.25
53.72	5916	0.25
53.94	5942	0.25
54.16	5967	0.25
54.37	5993	0.25
54.58	6018	0.25
54.80	6044	0.25
55.01	6069	0.24
55.23	6095	0.24
55.44	6120	0.24
55.66	6146	0.24
55.87	6171	0.24
56.09	6197	0.24
56.30	6222	0.24
56.52	6248	0.24
56.73	6273	0.24
56.95	6299	0.24
57.16	6324	0.24
57.38	6350	0.24
57.59	6375	0.24
57.81	6401	0.24
58.02	6426	0.24
58.24	6452	0.24
58.45	6477	0.24
58.67	6503	0.23
58.88	6528	0.23
59.10	6554	0.23
59.32	6579	0.23
59.53	6605	0.23
59.75	6630	0.23
59.96	6656	0.23
60.17	6681	0.23
60.39	6707	0.23
60.60	6732	0.23
60.82	6758	0.23
61.03	6783	0.22
61.25	6809	0.22
61.46	6834	0.22
61.68	6860	0.22
61.89	6885	0.22
62.11	6911	0.22
62.32	6936	0.22
62.54	6962	0.22
62.75	6987	0.22
62.97	7013	0.22
63.18	7038	0.22
63.40	7064	0.22
63.61	7089	0.21
63.83	7115	0.22
64.05	7140	0.22
64.26	7166	0.21
64.47	7191	0.22
64.55	7200	0.22