File: rawdata/empty_2
empty
Furnace temperature 	Time	HeatFlow
/°C	/s	/mW
7.70	0	-0.78
6.03	26	-0.71
5.27	51	-0.50
5.03	77	-0.31
4.99	102	-0.18
5.06	128	-0.07
5.19	153	0.02
5.10	179	0.10
5.18	204	0.16
5.37	230	0.21
5.60	255	0.25
5.86	281	0.28
6.12	306	0.30
6.37	332	0.31
6.63	357	0.32
6.88	383	0.32
7.12	408	0.32
7.36	434	0.33
7.59	459	0.33
7.83	485	0.33
8.06	510	0.33
8.28	536	0.33
8.50	561	0.33
8.73	587	0.33
8.95	612	0.33
9.17	638	0.33
9.38	663	0.33
9.60	689	0.33
9.82	714	0.33
10.04	740	0.33
10.25	765	0.33
10.47	791	0.33
10.69	816	0.32
10.90	842	0.32
11.12	867	0.32
11.34	893	0.32
11.55	918	0.32
11.77	944	0.32
11.98	969	0.32
12.20	995	0.31
12.41	1020	0.31
12.63	1046	0.31
12.85	1071	0.30
13.06	1097	0.30
13.28	1122	0.29
13.49	1148	0.29
13.71	1173	0.28
13.92	1199	0.27
14.14	1224	0.26
14.35	1250	0.26
14.57	1275	0.25
14.79	1301	0.24
15.00	1326	0.23
15.22	1352	0.22
15.43	1377	0.21
15.65	1403	0.21
15.86	1428	0.20
16.08	1454	0.19
16.29	1479	0.18
16.51	1505	0.17
16.72	1530	0.17
16.94	1556	0.16
17.15	1581	0.16
17.37	1607	0.15
17.58	1632	0.14
17.80	1658	0.13
18.01	1683	0.13
18.23	1709	0.12
18.44	1734	0.11
18.66	1760	0.11
18.88	1785	0.10
19.09	1811	0.10
19.31	1836	0.09
19.52	1862	0.08
19.74	1887	0.08
19.95	1913	0.07
20.17	1938	0.06
20.38	1964	0.06
20.60	1989	0.05
20.81	2015	0.04
21.03	2040	0.04
21.24	2066	0.03
21.46	2091	0.02
21.67	2117	0.01
21.89	2142	0.01
22.10	2168	0.00
22.32	2193	-0.01
22.53	2219	-0.02
22.75	2244	-0.02
22.96	2270	-0.03
23.18	2295	-0.04
23.39	2321	-0.05
23.61	2346	-0.05
23.82	2372	-0.06
24.04	2397	-0.07
24.25	2423	-0.08
24.47	2448	-0.09
24.68	2474	-0.09
24.90	2499	-0.10
25.11	2525	-0.11
25.33	2550	-0.12
25.54	2576	-0.13
25.76	2601	-0.14
25.98	2627	-0.15
26.19	2652	-0.16
26.40	2678	-0.17
26.62	2703	-0.18
26.84	2729	-0.19
27.05	2754	-0.20
27.27	2780	-0.21
27.48	2805	-0.22
27.70	2831	-0.23
27.91	2856	-0.24
28.13	2882	-0.25
28.34	2907	-0.26
28.56	2933	-0.27
28.77	2958	-0.28
28.99	2984	-0.29
29.20	3009	-0.30
29.42	3035	-0.31
29.63	3060	-0.32
29.85	3086	-0.34
30.06	3111	-0.35
30.28	3137	-0.36
30.49	3162	-0.37
30.71	3188	-0.38
30.93	3213	-0.39
31.14	3239	-0.40
31.35	3264	-0.42
31.57	3290	-0.43
31.78	3315	-0.44
32.00	3341	-0.45
32.21	3366	-0.47
32.43	3392	-0.48
32.64	3417	-0.49
32.86	3443	-0.51
33.07	3468	-0.52
33.29	3494	-0.53
33.50	3519	-0.55
33.72	3545	-0.56
33.93	3570	-0.57
34.15	3596	-0.58
34.36	3621	-0.60
34.58	3647	-0.61
34.79	3672	-0.63
35.01	3698	-0.64
35.23	3723	-0.65
35.45	3749	-0.67
35.67	3774	-0.68
35.88	3800	-0.69
36.08	3825	-0.71
36.30	3851	-0.72
36.52	3876	-0.73
36.73	3902	-0.74
36.95	3927	-0.75
37.16	3953	-0.77
37.38	3978	-0.77
37.59	4004	-0.78
37.81	4029	-0.78
38.02	4055	-0.78
38.24	4080	-0.76
38.45	4106	-0.71
38.66	4131	-0.60
38.88	4157	-0.42
39.10	4182	-0.24
39.31	4208	-0.11
39.53	4233	-0.01
39.74	4259	0.05
39.96	4284	0.09
40.18	4310	0.11
40.39	4335	0.13
40.60	4361	0.15
40.82	4386	0.16
41.03	4412	0.17
41.25	4437	0.18
41.46	4463	0.19
41.68	4488	0.19
41.90	4514	0.20
42.11	4539	0.20
42.33	4565	0.21
42.54	4590	0.21
42.75	4616	0.22
42.97	4641	0.22
43.18	4667	0.22
43.40	4692	0.22
43.61	4718	0.23
43.83	4743	0.23
44.04	4769	0.23
44.26	4794	0.23
44.47	4820	0.23
44.69	4845	0.24
44.90	4871	0.24
45.12	4896	0.24
45.33	4922	0.24
45.55	4947	0.24
45.77	4973	0.24
45.98	4998	0.24
46.20	5024	0.24
46.41	5049	0.24
46.62	5075	0.24
46.84	5100	0.24
47.06	5126	0.24
47.27	5151	0.24
47.49	5177	0.24
47.70	5202	0.24
47.91	5228	0.25
48.13	5253	0.25
48.35	5279	0.25
48.56	5304	0.24
48.77	5330	0.25
48.99	5355	0.25
49.21	5381	0.24
49.42	5406	0.25
49.63	5432	0.25
49.85	5457	0.25
50.07	5483	0.25
50.28	5508	0.25
50.50	5534	0.25
50.71	5559	0.25
50.93	5585	0.25
51.14	5610	0.25
51.36	5636	0.25
51.57	5661	0.25
51.79	5687	0.25
52.00	5712	0.25
52.21	5738	0.25
52.43	5763	0.25
52.65	5789	0.25
52.86	5814	0.25
53.08	5840	0.25
53.29	5865	0.25
53.51	5891	0.25
53.72	5916	0.25
53.94	5942	0.25
54.15	5967	0.25
54.37	5993	0.24
54.58	6018	0.25
54.80	6044	0.25
55.01	6069	0.25
55.23	6095	0.25
55.44	6120	0.25
55.66	6146	0.25
55.87	6171	0.25
56.09	6197	0.25
56.30	6222	0.24
56.52	6248	0.24
56.73	6273	0.24
56.95	6299	0.25
57.16	6324	0.24
57.38	6350	0.24
57.59	6375	0.24
57.81	6401	0.24
58.02	6426	0.24
58.24	6452	0.24
58.45	6477	0.24
58.67	6503	0.24
58.88	6528	0.24
59.10	6554	0.24
59.31	6579	0.24
59.53	6605	0.24
59.74	6630	0.24
59.96	6656	0.24
60.17	6681	0.24
60.39	6707	0.24
60.60	6732	0.24
60.82	6758	0.24
61.03	6783	0.24
61.25	6809	0.24
61.47	6834	0.24
61.68	6860	0.24
61.89	6885	0.24
62.11	6911	0.23
62.32	6936	0.23
62.54	6962	0.23
62.76	6987	0.23
62.97	7013	0.23
63.18	7038	0.23
63.40	7064	0.23
63.61	7089	0.23
63.83	7115	0.23
64.05	7140	0.23
64.26	7166	0.23
64.47	7191	0.23
64.55	7200	0.23