File: rawdata/empty_3
empty
Furnace temperature 	Time	HeatFlow
/°C	/s	/mW
64.81	0	0.23
66.75	11	0.21
67.89	21	0.12
67.82	32	0.01
67.84	42	-0.06
67.73	53	-0.10
67.61	63	-0.12
67.47	74	-0.12
67.31	84	-0.12
67.14	95	-0.12
66.96	105	-0.12
66.77	116	-0.13
66.58	126	-0.14
66.38	137	-0.16
66.19	147	-0.18
65.98	158	-0.21
65.90	168	-0.23
65.69	179	-0.27
65.51	189	-0.30
65.31	200	-0.33
65.10	210	-0.36
64.90	221	-0.39
64.68	231	-0.41
64.47	242	-0.44
64.25	252	-0.47
64.03	263	-0.49
63.81	273	-0.51
63.60	284	-0.54
63.38	294	-0.56
63.16	305	-0.58
62.94	315	-0.60
62.72	326	-0.61
62.51	336	-0.63
62.29	347	-0.65
62.07	357	-0.66
61.85	368	-0.67
61.63	378	-0.68
61.41	389	-0.69
61.20	399	-0.70
60.98	410	-0.71
60.77	420	-0.71
60.55	431	-0.71
60.33	441	-0.72
60.11	452	-0.72
59.90	462	-0.73
59.68	473	-0.73
59.47	483	-0.73
59.26	494	-0.73
59.04	504	-0.73
58.83	515	-0.73
58.61	525	-0.74
58.40	536	-0.74
58.19	546	-0.74
57.97	557	-0.73
57.76	567	-0.74
57.54	578	-0.74
57.33	588	-0.74
57.12	599	-0.74
56.90	609	-0.74
56.69	620	-0.74
56.48	630	-0.74
56.26	641	-0.74
56.05	651	-0.74
55.84	662	-0.74
55.62	672	-0.74
55.41	683	-0.74
55.20	693	-0.74
54.99	704	-0.74
54.77	714	-0.74
54.56	725	-0.74
54.35	735	-0.74
54.13	746	-0.74
53.92	756	-0.74
53.71	767	-0.74
53.50	777	-0.74
53.28	788	-0.74
53.07	798	-0.74
52.86	809	-0.75
52.64	819	-0.74
52.43	830	-0.74
52.22	840	-0.74
52.01	851	-0.74
51.79	861	-0.74
51.58	872	-0.74
51.37	882	-0.74
51.16	893	-0.74
50.94	903	-0.75
50.73	914	-0.75
50.52	924	-0.75
50.30	935	-0.75
50.09	945	-0.75
49.88	956	-0.75
49.67	966	-0.75
49.45	977	-0.75
49.24	987	-0.75
49.03	998	-0.75
48.82	1008	-0.75
48.60	1019	-0.75
48.39	1029	-0.76
48.18	1040	-0.75
47.97	1050	-0.76
47.75	1061	-0.76
47.54	1071	-0.76
47.33	1082	-0.76
47.12	1092	-0.76
46.90	1103	-0.76
46.69	1113	-0.76
46.48	1124	-0.77
46.27	1134	-0.77
46.05	1145	-0.77
45.84	1155	-0.77
45.63	1166	-0.77
45.42	1176	-0.77
45.20	1187	-0.78
44.99	1197	-0.78
44.78	1208	-0.77
44.56	1218	-0.78
44.35	1229	-0.78
44.14	1239	-0.78
43.93	1250	-0.78
43.71	1260	-0.78
43.50	1271	-0.78
43.29	1281	-0.79
43.08	1292	-0.79
42.86	1302	-0.79
42.64	1313	-0.79
42.43	1323	-0.79
42.22	1334	-0.79
42.01	1344	-0.79
41.79	1355	-0.79
41.59	1365	-0.79
41.37	1376	-0.79
41.16	1386	-0.80
40.95	1397	-0.80
40.73	1407	-0.80
40.52	1418	-0.80
40.31	1428	-0.80
40.10	1439	-0.80
39.88	1449	-0.81
39.67	1460	-0.81
39.46	1470	-0.81
39.25	1481	-0.81
39.04	1491	-0.81
38.82	1502	-0.81
38.61	1512	-0.81
38.40	1523	-0.82
38.19	1533	-0.82
37.97	1544	-0.82
37.76	1554	-0.82
37.55	1565	-0.82
37.34	1575	-0.82
37.13	1586	-0.82
36.92	1596	-0.83
36.70	1607	-0.83
36.49	1617	-0.83
36.28	1628	-0.83
36.06	1638	-0.83
35.85	1649	-0.83
35.64	1659	-0.83
35.42	1670	-0.84
35.21	1680	-0.84
35.00	1691	-0.84
34.78	1701	-0.84
34.57	1712	-0.84
34.36	1722	-0.84
34.15	1733	-0.84
33.94	1743	-0.85
33.72	1754	-0.84
33.51	1764	-0.85
33.30	1775	-0.85
33.08	1785	-0.85
32.87	1796	-0.85
32.66	1806	-0.85
32.45	1817	-0.85
32.24	1827	-0.85
32.02	1838	-0.86
31.81	1848	-0.86
31.60	1859	-0.86
31.39	1869	-0.86
31.18	1880	-0.86
30.96	1890	-0.86
30.75	1901	-0.86
30.54	1911	-0.86
30.33	1922	-0.86
30.11	1932	-0.87
29.90	1943	-0.87
29.69	1953	-0.87
29.48	1964	-0.87
29.27	1974	-0.87
29.05	1985	-0.87
28.84	1995	-0.87
28.63	2006	-0.87
28.42	2016	-0.88
28.20	2027	-0.88
27.99	2037	-0.88
27.78	2048	-0.88
27.57	2058	-0.88
27.35	2069	-0.88
27.14	2079	-0.88
26.93	2090	-0.89
26.72	2100	-0.89
26.51	2111	-0.89
26.29	2121	-0.89
26.08	2132	-0.89
25.87	2142	-0.89
25.66	2153	-0.89
25.45	2163	-0.90
25.23	2174	-0.90
25.02	2184	-0.90
24.81	2195	-0.90
24.60	2205	-0.90
24.38	2216	-0.90
24.17	2226	-0.91
23.96	2237	-0.91
23.75	2247	-0.91
23.54	2258	-0.91
23.32	2268	-0.91
23.11	2279	-0.91
22.90	2289	-0.91
22.69	2300	-0.91
22.47	2310	-0.91
22.26	2321	-0.91
22.05	2331	-0.92
21.84	2342	-0.92
21.63	2352	-0.92
21.41	2363	-0.92
21.20	2373	-0.92
20.99	2384	-0.92
20.78	2394	-0.92
20.57	2405	-0.92
20.35	2415	-0.92
20.14	2426	-0.92
19.93	2436	-0.93
19.72	2447	-0.93
19.51	2457	-0.93
19.29	2468	-0.93
19.08	2478	-0.93
18.87	2489	-0.93
18.66	2499	-0.93
18.45	2510	-0.93
18.24	2520	-0.93
18.02	2531	-0.93
17.81	2541	-0.93
17.60	2552	-0.93
17.39	2562	-0.93
17.18	2573	-0.93
16.96	2583	-0.93
16.75	2594	-0.93
16.54	2604	-0.93
16.33	2615	-0.93
16.11	2625	-0.93
15.90	2636	-0.94
15.69	2646	-0.94
15.48	2657	-0.94
15.27	2667	-0.94
15.06	2678	-0.94
14.85	2688	-0.94
14.64	2699	-0.94
14.43	2709	-0.94
14.22	2720	-0.94
14.01	2730	-0.94
13.80	2741	-0.95
13.59	2751	-0.95
13.38	2762	-0.95
13.17	2772	-0.95
12.96	2783	-0.95
12.75	2793	-0.95
12.54	2804	-0.95
12.33	2814	-0.95
12.12	2825	-0.95
11.91	2835	-0.95
11.70	2846	-0.95
11.49	2856	-0.95
11.28	2867	-0.95
11.07	2877	-0.96
10.86	2888	-0.96
10.64	2898	-0.95
10.43	2909	-0.95
10.23	2919	-0.95
10.02	2930	-0.95
9.81	2940	-0.95
9.60	2951	-0.95
9.39	2961	-0.95
9.18	2972	-0.94
8.98	2982	-0.94
8.77	2993	-0.93
8.63	3000	-0.93