File: rawdata/P85_7
P85
Furnace temperature 	Time	HeatFlow
/°C	/s	/mW
65.02	0	0.39
66.84	11	0.37
67.89	21	0.27
67.84	32	0.13
67.85	42	-0.03
67.75	53	-0.19
67.63	63	-0.34
67.49	74	-0.48
67.32	84	-0.59
67.15	95	-0.68
66.97	105	-0.75
66.78	116	-0.80
66.59	126	-0.86
66.40	137	-0.92
66.20	147	-0.99
65.99	158	-1.04
65.90	168	-1.08
65.70	179	-1.10
65.51	189	-1.11
65.32	200	-1.11
65.11	210	-1.09
64.90	221	-1.07
64.69	231	-1.04
64.47	242	-1.02
64.25	252	-1.00
64.04	263	-0.98
63.82	273	-0.97
63.60	284	-0.97
63.38	294	-0.95
63.17	305	-0.94
62.95	315	-0.93
62.73	326	-0.93
62.51	336	-0.93
62.29	347	-0.93
62.08	357	-0.94
61.86	368	-0.95
61.64	378	-0.96
61.42	389	-0.97
61.21	399	-0.97
60.99	410	-0.99
60.77	420	-1.00
60.56	431	-1.01
60.34	441	-1.02
60.12	452	-1.03
59.91	462	-1.04
59.69	473	-1.04
59.48	483	-1.05
59.26	494	-1.05
59.05	504	-1.06
58.83	515	-1.07
58.62	525	-1.07
58.40	536	-1.07
58.19	546	-1.07
57.98	557	-1.07
57.76	567	-1.08
57.55	578	-1.08
57.33	588	-1.08
57.12	599	-1.08
56.91	609	-1.08
56.69	620	-1.08
56.48	630	-1.08
56.27	641	-1.08
56.05	651	-1.08
55.84	662	-1.08
55.63	672	-1.08
55.41	683	-1.08
55.20	693	-1.07
54.99	704	-1.07
54.77	714	-1.08
54.56	725	-1.07
54.35	735	-1.07
54.13	746	-1.08
53.92	756	-1.07
53.71	767	-1.07
53.50	777	-1.07
53.28	788	-1.07
53.07	798	-1.06
52.86	809	-1.07
52.64	819	-1.06
52.43	830	-1.07
52.22	840	-1.06
52.01	851	-1.06
51.79	861	-1.06
51.58	872	-1.05
51.37	882	-1.05
51.16	893	-1.05
50.94	903	-1.05
50.73	914	-1.05
50.52	924	-1.05
50.30	935	-1.04
50.09	945	-1.04
49.88	956	-1.04
49.67	966	-1.04
49.45	977	-1.03
49.24	987	-1.03
49.03	998	-1.03
48.82	1008	-1.03
48.60	1019	-1.02
48.39	1029	-1.02
48.18	1040	-1.02
47.97	1050	-1.01
47.75	1061	-1.01
47.54	1071	-1.00
47.33	1082	-1.00
47.12	1092	-1.00
46.90	1103	-1.00
46.69	1113	-0.99
46.48	1124	-0.99
46.27	1134	-0.98
46.05	1145	-0.98
45.84	1155	-0.97
45.63	1166	-0.97
45.41	1176	-0.96
45.20	1187	-0.95
44.99	1197	-0.95
44.78	1208	-0.95
44.56	1218	-0.94
44.35	1229	-0.93
44.14	1239	-0.92
43.93	1250	-0.91
43.71	1260	-0.91
43.50	1271	-0.90
43.29	1281	-0.89
43.08	1292	-0.88
42.86	1302	-0.87
42.65	1313	-0.86
42.44	1323	-0.85
42.23	1334	-0.83
42.01	1344	-0.83
41.80	1355	-0.81
41.59	1365	-0.80
41.38	1376	-0.79
41.16	1386	-0.77
40.95	1397	-0.76
40.74	1407	-0.74
40.53	1418	-0.73
40.31	1428	-0.71
40.10	1439	-0.69
39.89	1449	-0.67
39.68	1460	-0.66
39.46	1470	-0.63
39.25	1481	-0.61
39.04	1491	-0.59
38.83	1502	-0.57
38.61	1512	-0.54
38.40	1523	-0.52
38.19	1533	-0.50
37.98	1544	-0.47
37.76	1554	-0.44
37.55	1565	-0.40
37.34	1575	-0.37
37.13	1586	-0.33
36.92	1596	-0.29
36.70	1607	-0.26
36.49	1617	-0.21
36.28	1628	-0.18
36.07	1638	-0.13
35.85	1649	-0.09
35.64	1659	-0.04
35.43	1670	0.01
35.21	1680	0.07
34.99	1691	0.12
34.78	1701	0.17
34.57	1712	0.23
34.36	1722	0.30
34.15	1733	0.36
33.94	1743	0.43
33.73	1754	0.50
33.52	1764	0.58
33.31	1775	0.65
33.09	1785	0.73
32.88	1796	0.81
32.67	1806	0.90
32.45	1817	0.99
32.24	1827	1.08
32.03	1838	1.18
31.82	1848	1.28
31.60	1859	1.38
31.39	1869	1.48
31.18	1880	1.59
30.97	1890	1.70
30.76	1901	1.81
30.54	1911	1.93
30.33	1922	2.05
30.12	1932	2.17
29.91	1943	2.30
29.70	1953	2.42
29.48	1964	2.55
29.27	1974	2.68
29.06	1985	2.81
28.85	1995	2.93
28.64	2006	3.06
28.42	2016	3.18
28.21	2027	3.30
27.99	2037	3.42
27.78	2048	3.53
27.57	2058	3.63
27.35	2069	3.73
27.14	2079	3.81
26.93	2090	3.89
26.72	2100	3.95
26.51	2111	3.99
26.30	2121	4.01
26.08	2132	4.02
25.87	2142	3.99
25.66	2153	3.94
25.45	2163	3.85
25.24	2174	3.72
25.03	2184	3.56
24.81	2195	3.36
24.60	2205	3.12
24.39	2216	2.85
24.17	2226	2.55
23.96	2237	2.24
23.75	2247	1.93
23.54	2258	1.65
23.32	2268	1.38
23.11	2279	1.14
22.90	2289	0.92
22.69	2300	0.73
22.48	2310	0.55
22.26	2321	0.40
22.05	2331	0.26
21.84	2342	0.14
21.63	2352	0.03
21.42	2363	-0.06
21.20	2373	-0.15
20.99	2384	-0.22
20.78	2394	-0.29
20.57	2405	-0.35
20.36	2415	-0.40
20.14	2426	-0.45
19.93	2436	-0.49
19.72	2447	-0.53
19.51	2457	-0.56
19.30	2468	-0.59
19.09	2478	-0.63
18.87	2489	-0.65
18.66	2499	-0.67
18.45	2510	-0.69
18.24	2520	-0.72
18.03	2531	-0.73
17.82	2541	-0.75
17.60	2552	-0.77
17.39	2562	-0.78
17.18	2573	-0.79
16.97	2583	-0.81
16.76	2594	-0.82
16.55	2604	-0.83
16.34	2615	-0.84
16.12	2625	-0.85
15.91	2636	-0.86
15.70	2646	-0.87
15.49	2657	-0.88
15.28	2667	-0.89
15.07	2678	-0.90
14.86	2688	-0.91
14.65	2699	-0.91
14.44	2709	-0.92
14.23	2720	-0.93
14.02	2730	-0.94
13.81	2741	-0.94
13.60	2751	-0.95
13.39	2762	-0.96
13.18	2772	-0.97
12.97	2783	-0.97
12.76	2793	-0.98
12.55	2804	-0.98
12.34	2814	-0.99
12.13	2825	-0.99
11.92	2835	-1.00
11.71	2846	-1.00
11.50	2856	-1.01
11.30	2867	-1.01
11.09	2877	-1.01
10.88	2888	-1.01
10.67	2898	-1.01
10.46	2909	-1.01
10.26	2919	-1.00
10.05	2930	-1.00
9.85	2940	-0.99
9.64	2951	-0.99
9.43	2961	-0.99
9.23	2972	-0.99
9.03	2982	-0.98
8.83	2993	-0.98
8.70	3000	-0.97