File: rawdata/P85_4
P85
Furnace temperature 	Time	HeatFlow
/°C	/s	/mW
8.22	0	-0.96
7.86	26	-0.95
7.37	51	-0.93
6.72	77	-0.82
6.20	102	-0.59
5.94	128	-0.33
5.86	153	-0.10
5.62	179	0.10
5.27	204	0.25
5.09	230	0.36
5.20	255	0.43
5.46	281	0.47
5.76	306	0.50
6.07	332	0.51
6.38	357	0.51
6.67	383	0.50
6.95	408	0.50
7.22	434	0.48
7.48	459	0.47
7.74	485	0.46
7.98	510	0.46
8.22	536	0.45
8.46	561	0.44
8.68	587	0.44
8.91	612	0.43
9.13	638	0.43
9.36	663	0.43
9.58	689	0.42
9.80	714	0.42
10.02	740	0.41
10.24	765	0.41
10.46	791	0.41
10.68	816	0.41
10.89	842	0.40
11.11	867	0.40
11.33	893	0.40
11.55	918	0.39
11.76	944	0.39
11.98	969	0.39
12.20	995	0.38
12.41	1020	0.38
12.63	1046	0.38
12.84	1071	0.38
13.06	1097	0.38
13.27	1122	0.37
13.49	1148	0.37
13.71	1173	0.37
13.92	1199	0.37
14.14	1224	0.37
14.35	1250	0.36
14.57	1275	0.36
14.78	1301	0.36
15.00	1326	0.36
15.21	1352	0.35
15.43	1377	0.35
15.64	1403	0.35
15.86	1428	0.34
16.08	1454	0.34
16.29	1479	0.34
16.50	1505	0.34
16.72	1530	0.33
16.94	1556	0.33
17.15	1581	0.33
17.37	1607	0.32
17.58	1632	0.32
17.80	1658	0.32
18.01	1683	0.32
18.23	1709	0.31
18.44	1734	0.31
18.66	1760	0.31
18.87	1785	0.30
19.09	1811	0.30
19.30	1836	0.30
19.52	1862	0.29
19.73	1887	0.29
19.95	1913	0.29
20.16	1938	0.28
20.38	1964	0.28
20.60	1989	0.27
20.81	2015	0.27
21.03	2040	0.25
21.24	2066	0.24
21.46	2091	0.22
21.67	2117	0.21
21.89	2142	0.19
22.10	2168	0.17
22.32	2193	0.14
22.53	2219	0.11
22.75	2244	0.06
22.96	2270	0.01
23.18	2295	-0.05
23.39	2321	-0.13
23.61	2346	-0.21
23.82	2372	-0.31
24.04	2397	-0.43
24.25	2423	-0.56
24.47	2448	-0.70
24.68	2474	-0.85
24.90	2499	-1.00
25.11	2525	-1.15
25.33	2550	-1.28
25.54	2576	-1.40
25.76	2601	-1.51
25.98	2627	-1.60
26.19	2652	-1.67
26.40	2678	-1.72
26.62	2703	-1.76
26.83	2729	-1.79
27.05	2754	-1.80
27.27	2780	-1.80
27.48	2805	-1.79
27.70	2831	-1.77
27.91	2856	-1.75
28.13	2882	-1.72
28.34	2907	-1.68
28.56	2933	-1.64
28.77	2958	-1.59
28.99	2984	-1.54
29.20	3009	-1.49
29.42	3035	-1.44
29.63	3060	-1.39
29.85	3086	-1.33
30.06	3111	-1.28
30.28	3137	-1.22
30.49	3162	-1.16
30.71	3188	-1.11
30.92	3213	-1.05
31.14	3239	-1.00
31.35	3264	-0.95
31.57	3290	-0.89
31.78	3315	-0.84
32.00	3341	-0.79
32.21	3366	-0.74
32.43	3392	-0.70
32.64	3417	-0.65
32.86	3443	-0.61
33.07	3468	-0.56
33.29	3494	-0.52
33.50	3519	-0.48
33.72	3545	-0.44
33.93	3570	-0.41
34.15	3596	-0.37
34.36	3621	-0.34
34.58	3647	-0.30
34.79	3672	-0.27
35.01	3698	-0.24
35.22	3723	-0.21
35.44	3749	-0.18
35.66	3774	-0.16
35.87	3800	-0.13
36.08	3825	-0.11
36.30	3851	-0.08
36.52	3876	-0.06
36.73	3902	-0.04
36.95	3927	-0.02
37.16	3953	-0.00
37.38	3978	0.02
37.59	4004	0.03
37.81	4029	0.05
38.02	4055	0.07
38.24	4080	0.08
38.45	4106	0.10
38.67	4131	0.11
38.88	4157	0.12
39.10	4182	0.14
39.31	4208	0.15
39.53	4233	0.16
39.74	4259	0.17
39.96	4284	0.18
40.17	4310	0.19
40.39	4335	0.20
40.60	4361	0.21
40.82	4386	0.22
41.03	4412	0.23
41.25	4437	0.24
41.46	4463	0.24
41.68	4488	0.25
41.89	4514	0.26
42.11	4539	0.26
42.32	4565	0.27
42.54	4590	0.28
42.75	4616	0.28
42.97	4641	0.29
43.18	4667	0.29
43.40	4692	0.30
43.61	4718	0.30
43.83	4743	0.31
44.05	4769	0.31
44.26	4794	0.31
44.48	4820	0.32
44.69	4845	0.32
44.91	4871	0.32
45.12	4896	0.33
45.34	4922	0.33
45.55	4947	0.33
45.77	4973	0.34
45.98	4998	0.34
46.19	5024	0.34
46.41	5049	0.35
46.62	5075	0.35
46.84	5100	0.35
47.06	5126	0.35
47.27	5151	0.36
47.48	5177	0.36
47.70	5202	0.36
47.91	5228	0.36
48.13	5253	0.37
48.34	5279	0.37
48.57	5304	0.37
48.77	5330	0.37
48.99	5355	0.38
49.20	5381	0.38
49.42	5406	0.38
49.64	5432	0.38
49.85	5457	0.38
50.06	5483	0.38
50.28	5508	0.39
50.50	5534	0.39
50.72	5559	0.39
50.93	5585	0.39
51.14	5610	0.39
51.36	5636	0.39
51.57	5661	0.39
51.79	5687	0.40
52.00	5712	0.40
52.22	5738	0.40
52.43	5763	0.40
52.65	5789	0.40
52.86	5814	0.40
53.08	5840	0.40
53.29	5865	0.41
53.51	5891	0.41
53.72	5916	0.41
53.94	5942	0.41
54.15	5967	0.41
54.37	5993	0.41
54.58	6018	0.41
54.80	6044	0.41
55.01	6069	0.41
55.23	6095	0.41
55.44	6120	0.42
55.66	6146	0.42
55.87	6171	0.42
56.09	6197	0.42
56.30	6222	0.42
56.52	6248	0.42
56.73	6273	0.42
56.95	6299	0.42
57.16	6324	0.42
57.38	6350	0.42
57.59	6375	0.42
57.81	6401	0.43
58.02	6426	0.43
58.24	6452	0.43
58.45	6477	0.43
58.67	6503	0.43
58.88	6528	0.43
59.10	6554	0.43
59.31	6579	0.43
59.53	6605	0.43
59.74	6630	0.43
59.96	6656	0.43
60.17	6681	0.43
60.39	6707	0.43
60.60	6732	0.42
60.82	6758	0.42
61.03	6783	0.42
61.25	6809	0.41
61.46	6834	0.41
61.68	6860	0.41
61.90	6885	0.40
62.11	6911	0.40
62.32	6936	0.39
62.54	6962	0.39
62.75	6987	0.39
62.97	7013	0.38
63.18	7038	0.38
63.40	7064	0.38
63.61	7089	0.38
63.83	7115	0.38
64.04	7140	0.38
64.26	7166	0.38
64.48	7191	0.38
64.55	7200	0.39