File: rawdata/SM_EC-EC_h3.txt
 SM_EC_EC
Creation Date : 12/21/2018 12:44:06 PM
User : PSCM

HeatFlow :
 Initial Mass : 0 mg
 Molar Mass : N/A

Index Time (s)   Furnace Temperature (Â°C) HeatFlow (mW)
1     0          4.471363                 0.26142
77    22.8       3.371361                 0.124814
153   45.6       3.130447                 0.01889
229   68.4       3.276582                 -0.201525
305   91.2       3.551594                 -0.523175
381   114        3.879833                 -0.888992
457   136.8      4.240924                 -1.256943
533   159.6      4.622806                 -1.59623
609   182.4      4.841613                 -1.889427
685   205.2      5.217296                 -2.135446
761   228        5.630308                 -2.333448
837   250.8      6.047901                 -2.489615
913   273.6      6.480768                 -2.604971
989   296.4      6.912011                 -2.692512
1065  319.2      7.342573                 -2.753934
1141  342        7.762984                 -2.799609
1217  364.8      8.189265                 -2.825661
1293  387.6      8.605982                 -2.843531
1369  410.4      9.026755                 -2.851274
1445  433.2      9.434981                 -2.854929
1521  456        9.845272                 -2.849887
1597  478.8      10.256                -2.847771
1673  501.6      10.6613                -2.841978
1749  524.4      11.0617                -2.839552
1825  547.2      11.4664                -2.832201
1901  570        11.86985                 -2.829485
1977  592.8      12.269                -2.825145
2053  615.6      12.666                -2.821082
2129  638.4      13.0644                -2.814881
2205  661.2      13.4677                  -2.81278
2281  684        13.8615                -2.811752
2357  706.8      14.2598                -2.812695
2433  729.6      14.6589                -2.810229
2509  752.4      15.0556                -2.808772
2585  775.2      15.4468                -2.805753
2661  798        15.8424                -2.805556
2737  820.8      16.2393                -2.802405
2813  843.6      16.6415                -2.802711
2889  866.4      17.0377                -2.803637
2965  889.2      17.4305                -2.806903
3041  912        17.83097                 -2.805094
3117  934.8      18.2256                -2.807299
3193  957.6      18.6194                -2.808112
3269  980.4      19.0159                -2.808274
3345  1003.2     19.4143                -2.8074
3421  1026       19.8097                -2.805554
3497  1048.8     20.2036                -2.804965
3573  1071.6     20.59757                 -2.806008
3649  1094.4     20.9927                -2.807179
3725  1117.2     21.3843                -2.805034
3801  1140       21.7806                -2.805755
3877  1162.8     22.1738                -2.805635
3953  1185.6     22.5733                -2.803147
4029  1208.4     22.9621                -2.799885
4105  1231.2     23.3618                -2.800741
4181  1254       23.7534                -2.802837
4257  1276.8     24.1537                -2.803415
4333  1299.6     24.541                -2.80349
4409  1322.4     24.9394                -2.806634
4485  1345.2     25.3278                -2.807763
4561  1368       25.7296                -2.807941
4637  1390.8     26.1202                -2.805663
4713  1413.6     26.5187                -2.806238
4789  1436.4     26.9109                -2.807411
4865  1459.2     27.3105                -2.810997
4941  1482       27.7039                -2.807443
5017  1504.8     28.1043                -2.806217
5093  1527.6     28.49509                 -2.806
5169  1550.4     28.8916                -2.805375
5245  1573.2     29.2835                -2.802464
5321  1596       29.68036                 -2.800421
5397  1618.8     30.0752                -2.801235
5473  1641.6     30.4656                -2.803456
5549  1664.4     30.8624                -2.801349
5625  1687.2     31.2576                -2.805252
5701  1710       31.6545                -2.805089
5777  1732.8     32.0488                -2.807098
5853  1755.6     32.4445                -2.804346
5929  1778.4     32.8443                -2.803127
6005  1801.2     33.2338                -2.802039
6081  1824       33.6292                -2.805283
6157  1846.8     34.0281                -2.802863
6233  1869.6     34.4272                -2.803579
6309  1892.4     34.822                -2.80333
6385  1915.2     35.2134                -2.80331
6461  1938       35.6088                -2.801702
6537  1960.8     36.0096                -2.799494
6613  1983.6     36.4085                -2.799053
6689  2006.4     36.7982                -2.803064
6765  2029.2     37.1954                -2.804293
6841  2052       37.5883                -2.803735
6917  2074.8     37.9829                -2.805148
6993  2097.6     38.3732                -2.805992
7069  2120.4     38.7717                -2.805016
7145  2143.2     39.1631                -2.803331
7221  2166       39.5589                -2.806795
7297  2188.8     39.9529                -2.806207
7373  2211.6     40.3507                -2.808442
7449  2234.4     40.7362                -2.806606
7525  2257.2     41.1345                -2.807464
7601  2280       41.5274                -2.806401
7677  2302.8     41.9272                -2.805319
7753  2325.6     42.3162                -2.802591
7829  2348.4     42.7174                -2.803172
7905  2371.2     43.10969                 -2.804513
7981  2394       43.5101                -2.806612
8057  2416.8     43.9026                -2.803528
8133  2439.6     44.2988                -2.807594
8209  2462.4     44.689                -2.805597
8285  2485.2     45.081                -2.808101
8361  2508       45.4743                -2.803162
8437  2530.8     45.8715                -2.801265
8513  2553.6     46.2631                -2.801332
8589  2576.4     46.6618                -2.803486
8665  2599.2     47.0613                -2.800288
8741  2622       47.4611                -2.803189
8817  2644.8     47.8525                -2.800466
8893  2667.6     48.2414                -2.799121
8969  2690.4     48.6375                -2.794366
9045  2713.2     49.0396                -2.796297
9121  2736       49.4381                -2.794998
9197  2758.8     49.8278                -2.800344
9273  2781.6     50.2276                -2.799469
9349  2804.4     50.6273                -2.799907
9425  2827.2     51.0203                -2.802924
9501  2850       51.4126                -2.805725
9577  2872.8     51.8064                -2.803148
9653  2895.6     52.1983                -2.803588
9729  2918.4     52.5934                -2.801124
9805  2941.2     52.9856                -2.802436
9881  2964       53.3834                -2.803675
9957  2986.8     53.7751                -2.800176
10033 3009.6     54.1732                -2.799842
10109 3032.4     54.5602                -2.797548
10185 3055.2     54.958                -2.796253
10261 3078       55.35                -2.788033
10337 3100.8     55.7499                -2.78923
10413 3123.6     56.14119                 -2.788061
10489 3146.4     56.5405                -2.79163
10565 3169.2     56.9327                -2.789892
10641 3192       57.3319                -2.796755
10717 3214.8     57.7236                -2.796391
10793 3237.6     58.11358                 -2.798744
10869 3260.4     58.5076                -2.794366
10945 3283.2     58.9047                -2.79623
11021 3306       59.297                -2.793006
11097 3328.8     59.6939                -2.792702
11173 3351.6     60.0937                -2.792512
11249 3374.4     60.4929                -2.797424
11325 3397.2     60.8838                -2.800064
11401 3420       61.2771                -2.799308
11477 3442.8     61.6715                -2.794252
11553 3465.6     62.0749                -2.793829
11629 3488.4     62.4701                -2.794123
11705 3511.2     62.8638                -2.794551
11781 3534       63.2648                -2.797993
11857 3556.8     63.6594                -2.795487
11933 3579.6     64.0529                -2.795452
12009 3602.4     64.4415                -2.796487
12085 3625.2     64.8369                -2.794405
12161 3648       65.2317                -2.792688
12237 3670.8     65.6288                -2.7946
12313 3693.6     66.0228                -2.797627
12389 3716.4     66.4184                -2.798821
12465 3739.2     66.79997                 -2.793786
12541 3762       67.20066                 -2.789029
12617 3784.8     67.594                -2.788835
12693 3807.6     67.9934                -2.788636
12769 3830.4     68.3847                -2.786329
12845 3853.2     68.7858                -2.791476
12921 3876       69.17655                 -2.796494
12997 3898.8     69.571                -2.800304
13073 3921.6     69.9647                -2.79667
13149 3944.4     70.3565                -2.795947
13225 3967.2     70.7474                -2.798171
13301 3990       71.1459                -2.796455
13377 4012.8     71.542                -2.793763
13453 4035.6     71.9444                -2.789486
13529 4058.4     72.3337                -2.782461
13605 4081.2     72.73052                 -2.779073
13681 4104       73.1302                -2.779461
13757 4126.8     73.5295                -2.777018
13833 4149.6     73.9231                -2.774493
13909 4172.4     74.3174                -2.775039
13985 4195.2     74.7152                -2.769315
14061 4218       75.1112                -2.767657
14137 4240.8     75.5039                -2.775354
14213 4263.6     75.8919                -2.777447
14289 4286.4     76.2889                -2.775623
14365 4309.2     76.6832                -2.779077
14441 4332       77.0799                -2.784447
14517 4354.8     77.4669                -2.789559
14593 4377.6     77.8664                -2.788537
14669 4400.4     78.2587                -2.78776
14745 4423.2     78.6565                -2.789063
14821 4446       79.0457                -2.790514
14897 4468.8     79.44795                 -2.794195
14973 4491.6     79.841                -2.789049
15001 4500       79.9871                -2.790007