File: rawdata/SM_EC-EC_h2.txt
 SM_EC_EC
Creation Date : 12/21/2018 12:43:34 PM
User : PSCM

HeatFlow :
 Initial Mass : 0 mg
 Molar Mass : N/A

Index Time (s)   Furnace Temperature (Â°C) HeatFlow (mW)
1     0          4.450538                 0.251444
77    22.8       3.415975                 0.121369
153   45.6       3.151384                 0.019818
229   68.4       3.295756                 -0.196555
305   91.2       3.567354                 -0.515067
381   114        3.893823                 -0.879956
457   136.8      4.252559                 -1.246755
533   159.6      4.633237                 -1.586625
609   182.4      4.848124                 -1.879933
685   205.2      5.22483                  -2.126154
761   228        5.635323                 -2.325869
837   250.8      6.051643                 -2.483461
913   273.6      6.48705                  -2.599988
989   296.4      6.913587                 -2.688156
1065  319.2      7.343614                 -2.750309
1141  342        7.763346                 -2.796667
1217  364.8      8.191452                 -2.822507
1293  387.6      8.607494                 -2.83966
1369  410.4      9.025757                 -2.848094
1445  433.2      9.435995                 -2.850689
1521  456        9.846519                 -2.847449
1597  478.8      10.2567                -2.844552
1673  501.6      10.6609                -2.839649
1749  524.4      11.0622                -2.836792
1825  547.2      11.46714                 -2.830829
1901  570        11.8694                -2.828192
1977  592.8      12.2684                -2.824749
2053  615.6      12.667                -2.821483
2129  638.4      13.0666                -2.814023
2205  661.2      13.4686                -2.811639
2281  684        13.8625                -2.809768
2357  706.8      14.2602                -2.810409
2433  729.6      14.6609                -2.809064
2509  752.4      15.0585                -2.807151
2585  775.2      15.4468                -2.806013
2661  798        15.8438                -2.805588
2737  820.8      16.2396                -2.801692
2813  843.6      16.6412                -2.801517
2889  866.4      17.03622                 -2.801633
2965  889.2      17.4304                -2.805567
3041  912        17.8291                -2.804718
3117  934.8      18.2266                -2.80734
3193  957.6      18.6202                -2.808742
3269  980.4      19.0167                -2.811178
3345  1003.2     19.4142                -2.808944
3421  1026       19.8104                -2.806074
3497  1048.8     20.2047                -2.805547
3573  1071.6     20.5976                -2.807306
3649  1094.4     20.9926                -2.807969
3725  1117.2     21.3861                -2.806723
3801  1140       21.7799                -2.808225
3877  1162.8     22.1732                -2.807641
3953  1185.6     22.5725                -2.804421
4029  1208.4     22.9643                -2.801465
4105  1231.2     23.3625                -2.800755
4181  1254       23.7539                -2.802655
4257  1276.8     24.153                -2.803643
4333  1299.6     24.5411                -2.803058
4409  1322.4     24.9392                -2.805902
4485  1345.2     25.3294                -2.807938
4561  1368       25.7299                -2.80636
4637  1390.8     26.1196                -2.804492
4713  1413.6     26.5209                -2.804323
4789  1436.4     26.91147                 -2.805922
4865  1459.2     27.3113                -2.807581
4941  1482       27.7043                -2.806562
5017  1504.8     28.1059                -2.808688
5093  1527.6     28.4959                -2.805198
5169  1550.4     28.8908                -2.804903
5245  1573.2     29.2844                -2.801454
5321  1596       29.67985                 -2.801692
5397  1618.8     30.0726                -2.800319
5473  1641.6     30.4664                -2.803209
5549  1664.4     30.8624                -2.801601
5625  1687.2     31.2589                -2.803371
5701  1710       31.6524                -2.804241
5777  1732.8     32.0494                -2.80473
5853  1755.6     32.4448                -2.804839
5929  1778.4     32.8462                -2.803068
6005  1801.2     33.2343                -2.800585
6081  1824       33.6285                -2.80372
6157  1846.8     34.028                -2.802547
6233  1869.6     34.4271                -2.80343
6309  1892.4     34.8213                -2.800911
6385  1915.2     35.2136                -2.803395
6461  1938       35.6069                -2.799995
6537  1960.8     36.0092                -2.799243
6613  1983.6     36.4087                -2.798794
6689  2006.4     36.8007                -2.803886
6765  2029.2     37.1961                -2.803584
6841  2052       37.5884                -2.804941
6917  2074.8     37.9824                -2.80809
6993  2097.6     38.3721                -2.807084
7069  2120.4     38.7719                -2.803544
7145  2143.2     39.1643                -2.803389
7221  2166       39.5583                -2.805416
7297  2188.8     39.9535                -2.804468
7373  2211.6     40.3512                -2.807085
7449  2234.4     40.7366                -2.807457
7525  2257.2     41.1339                -2.807523
7601  2280       41.5262                -2.806379
7677  2302.8     41.9269                -2.80574
7753  2325.6     42.317                -2.803295
7829  2348.4     42.7172                -2.802582
7905  2371.2     43.1083                -2.803706
7981  2394       43.5105                -2.807197
8057  2416.8     43.901                -2.804297
8133  2439.6     44.2974                -2.806781
8209  2462.4     44.6885                -2.809794
8285  2485.2     45.083                -2.807103
8361  2508       45.4742                -2.802334
8437  2530.8     45.87213                 -2.800943
8513  2553.6     46.2627                -2.799636
8589  2576.4     46.6612                -2.801476
8665  2599.2     47.0627                -2.797963
8741  2622       47.46103                 -2.798806
8817  2644.8     47.8538                -2.79808
8893  2667.6     48.2434                -2.797123
8969  2690.4     48.6388                -2.794477
9045  2713.2     49.04075                 -2.793795
9121  2736       49.4365                -2.795228
9197  2758.8     49.8284                -2.798355
9273  2781.6     50.2294                -2.797887
9349  2804.4     50.627                -2.798012
9425  2827.2     51.0191                -2.799475
9501  2850       51.41417                 -2.800341
9577  2872.8     51.808                -2.799238
9653  2895.6     52.2001                -2.798181
9729  2918.4     52.5927                -2.798908
9805  2941.2     52.9855                -2.802719
9881  2964       53.3858                -2.799799
9957  2986.8     53.7754                -2.800688
10033 3009.6     54.1734                -2.800293
10109 3032.4     54.561                -2.798003
10185 3055.2     54.9589                  -2.796787
10261 3078       55.3492                -2.794345
10337 3100.8     55.7481                -2.794015
10413 3123.6     56.14161                 -2.796013
10489 3146.4     56.5403                -2.797413
10565 3169.2     56.9345                -2.798518
10641 3192       57.3319                -2.800584
10717 3214.8     57.7228                -2.80135
10793 3237.6     58.11586                 -2.802037
10869 3260.4     58.506                -2.795608
10945 3283.2     58.90556                 -2.794547
11021 3306       59.2972                -2.79423
11097 3328.8     59.6959                -2.795768
11173 3351.6     60.0923                -2.794071
11249 3374.4     60.49367                 -2.796469
11325 3397.2     60.8843                -2.795496
11401 3420       61.27572                 -2.794232
11477 3442.8     61.6738                -2.791205
11553 3465.6     62.0754                -2.789897
11629 3488.4     62.4708                -2.790161
11705 3511.2     62.8652                -2.794806
11781 3534       63.2645                -2.793976
11857 3556.8     63.6597                -2.793002
11933 3579.6     64.0506                -2.793637
12009 3602.4     64.4436                -2.792956
12085 3625.2     64.83752                 -2.791452
12161 3648       65.2309                -2.790466
12237 3670.8     65.6274                -2.791859
12313 3693.6     66.0194                -2.796702
12389 3716.4     66.4155                -2.799256
12465 3739.2     66.8025                -2.794946
12541 3762       67.2016                -2.796709
12617 3784.8     67.5935                -2.7964
12693 3807.6     67.99638                 -2.794337
12769 3830.4     68.3856                -2.791067
12845 3853.2     68.7874                -2.794791
12921 3876       69.1789                -2.797293
12997 3898.8     69.5701                -2.79708
13073 3921.6     69.9618                -2.79215
13149 3944.4     70.3553                -2.7934
13225 3967.2     70.7496                -2.790038
13301 3990       71.146                -2.785386
13377 4012.8     71.5419                -2.783899
13453 4035.6     71.9438                -2.781747
13529 4058.4     72.3335                -2.776842
13605 4081.2     72.7297                -2.78146
13681 4104       73.1302                -2.77812
13757 4126.8     73.5295                -2.774761
13833 4149.6     73.9229                -2.778016
13909 4172.4     74.31863                 -2.779416
13985 4195.2     74.7156                -2.778482
14061 4218       75.11162                 -2.777297
14137 4240.8     75.5007                -2.773115
14213 4263.6     75.8944                -2.77796
14289 4286.4     76.292                -2.779831
14365 4309.2     76.6835                -2.783659
14441 4332       77.082                -2.787327
14517 4354.8     77.4677                -2.789246
14593 4377.6     77.8665                -2.785871
14669 4400.4     78.2577                -2.789682
14745 4423.2     78.6555                -2.791402
14821 4446       79.04666                 -2.789515
14897 4468.8     79.4491                -2.791283
14973 4491.6     79.8404                -2.789609
15001 4500       79.9898                -2.789117