File: rawdata/SM_EC-EC_c2.txt
 SM_EC_EC
Creation Date : 12/21/2018 12:43:48 PM
User : PSCM

HeatFlow :
 Initial Mass : 0 mg
 Molar Mass : N/A

Index Time (s)   Furnace Temperature (Â°C) HeatFlow (mW)
1     0          82.717                -0.213966
75    22.2       84.5184                -0.188258
149   44.4       84.4408                -0.113019
223   66.6       84.2217                0.104846
297   88.8       83.9229                0.418832
371   111        83.5883                0.766093
445   133.2      83.2323                1.11534
519   155.4      82.8654                1.438783
593   177.6      82.615                1.723155
667   199.8      82.234                1.9626
741   222        81.8487                2.158215
815   244.2      81.4645                2.313405
889   266.4      81.0718                2.435708
963   288.6      80.6733                2.528379
1037  310.8      80.2772                2.603439
1111  333        79.8792                2.657666
1185  355.2      79.4863                2.700818
1259  377.4      79.0938                2.735744
1333  399.6      78.7013                2.759946
1407  421.8      78.304                2.774452
1481  444        77.9171                2.785258
1555  466.2      77.5239                2.791784
1629  488.4      77.1423                2.794979
1703  510.6      76.7512                2.797621
1777  532.8      76.36113                 2.797477
1851  555        75.9711                2.798547
1925  577.2      75.5855                2.799212
1999  599.4      75.2009                2.804217
2073  621.6      74.8154                2.80135
2147  643.8      74.4347                2.80553
2221  666        74.0532                2.805616
2295  688.2      73.6667                2.80808
2369  710.4      73.2802                2.812141
2443  732.6      72.8947                2.799341
2517  754.8      72.5039                2.776119
2591  777        72.12113                 2.760472
2665  799.2      71.7313                2.767269
2739  821.4      71.3461                2.776562
2813  843.6      70.9572                2.781906
2887  865.8      70.5801                2.786687
2961  888        70.1929                2.788758
3035  910.2      69.8054                2.78851
3109  932.4      69.41889                 2.793002
3183  954.6      69.0354                2.792979
3257  976.8      68.6518                2.793398
3331  999        68.2667                2.791502
3405  1021.2     67.8886                2.792128
3479  1043.4     67.50906                 2.793499
3553  1065.6     67.1262                2.792101
3627  1087.8     66.7351                2.794824
3701  1110       66.3505                2.795208
3775  1132.2     65.9604                2.796801
3849  1154.4     65.5823                2.794451
3923  1176.6     65.1894                2.794154
3997  1198.8     64.8074                2.790526
4071  1221       64.4162                2.791053
4145  1243.2     64.0417                2.78894
4219  1265.4     63.6539                2.7891
4293  1287.6     63.265                2.788325
4367  1309.8     62.8773                2.789115
4441  1332       62.4947                2.787708
4515  1354.2     62.1136                2.788085
4589  1376.4     61.7268                2.78396
4663  1398.6     61.3509                2.784892
4737  1420.8     60.96802                 2.787482
4811  1443       60.5855                2.783553
4885  1465.2     60.1962                2.783195
4959  1487.4     59.8119                2.787553
5033  1509.6     59.4223                2.78535
5107  1531.8     59.0433                2.785662
5181  1554       58.6532                2.780325
5255  1576.2     58.2683                2.778401
5329  1598.4     57.8795                2.779703
5403  1620.6     57.504                2.778064
5477  1642.8     57.117                2.77723
5551  1665       56.7281                2.777873
5625  1687.2     56.3414                2.778419
5699  1709.4     55.9604                2.781957
5773  1731.6     55.5755                2.78354
5847  1753.8     55.1955                2.783911
5921  1776       54.81381                 2.783527
5995  1798.2     54.4311                2.783444
6069  1820.4     54.0528                2.782789
6143  1842.6     53.66284                 2.78363
6217  1864.8     53.2765                2.785899
6291  1887       52.8882                2.788603
6365  1909.2     52.504                2.786452
6439  1931.4     52.1193                2.786391
6513  1953.6     51.7345                2.784658
6587  1975.8     51.3434                2.784641
6661  1998       50.9696                2.782888
6735  2020.2     50.5842                2.783207
6809  2042.4     50.1981                2.784754
6883  2064.6     49.8092                2.786205
6957  2086.8     49.4282                2.788932
7031  2109       49.0388                2.789947
7105  2131.2     48.6607                2.786267
7179  2153.4     48.2819                2.788663
7253  2175.6     47.8993                2.790578
7327  2197.8     47.5135                2.790319
7401  2220       47.13                2.79115
7475  2242.2     46.7471                2.792483
7549  2264.4     46.3585                2.795833
7623  2286.6     45.9745                2.796428
7697  2308.8     45.5865                2.796356
7771  2331       45.20891                 2.797334
7845  2353.2     44.8141                2.798727
7919  2375.4     44.4363                2.796357
7993  2397.6     44.0487                2.794537
8067  2419.8     43.6724                2.795416
8141  2442       43.2838                2.796837
8215  2464.2     42.8974                2.79959
8289  2486.4     42.5088                2.799121
8363  2508.6     42.1219                2.798483
8437  2530.8     41.7489                2.799617
8511  2553       41.3649                2.802429
8585  2575.2     40.9823                2.801129
8659  2597.4     40.5938                2.800251
8733  2619.6     40.2141                2.802941
8807  2641.8     39.8295                2.804836
8881  2664       39.4445                2.804916
8955  2686.2     39.0575                2.803557
9029  2708.4     38.6743                2.802043
9103  2730.6     38.2855                2.801876
9177  2752.8     37.9064                2.799893
9251  2775       37.514                2.796682
9325  2797.2     37.134                2.799408
9399  2819.4     36.7441                2.80101
9473  2841.6     36.3694                2.800908
9547  2863.8     35.9814                2.800413
9621  2886       35.59307                 2.798289
9695  2908.2     35.21196                 2.799026
9769  2930.4     34.8263                2.801064
9843  2952.6     34.4446                2.801543
9917  2974.8     34.0591                2.802803
9991  2997       33.6765                2.805546
10065 3019.2     33.2957                2.806852
10139 3041.4     32.9184                2.806158
10213 3063.6     32.5301                2.80393
10287 3085.8     32.1439                2.804493
10361 3108       31.7555                2.803483
10435 3130.2     31.3746                2.80315
10509 3152.4     30.985                2.801822
10583 3174.6     30.6056                2.803483
10657 3196.8     30.2135                2.804514
10731 3219       29.8336                2.806193
10805 3241.2     29.4444                2.807408
10879 3263.4     29.068                2.806592
10953 3285.6     28.6873                2.80653
11027 3307.8     28.2979                2.807127
11101 3330       27.9143                2.809477
11175 3352.2     27.5255                2.810769
11249 3374.4     27.1432                2.812249
11323 3396.6     26.7651                2.812863
11397 3418.8     26.3814                2.813208
11471 3441       25.9928                2.810088
11545 3463.2     25.6178                2.810533
11619 3485.4     25.2358                2.810758
11693 3507.6     24.8515                2.808091
11767 3529.8     24.462                2.806524
11841 3552       24.0789                2.808085
11915 3574.2     23.6881                2.808446
11989 3596.4     23.3124                2.810312
12063 3618.6     22.922                2.808871
12137 3640.8     22.5362                2.808399
12211 3663       22.1513                2.810845
12285 3685.2     21.7757                2.809782
12359 3707.4     21.38744                 2.811436
12433 3729.6     21.0053                2.812061
12507 3751.8     20.6201                2.814302
12581 3774       20.23643                 2.816168
12655 3796.2     19.8546                2.817442
12729 3818.4     19.4639                2.816638
12803 3840.6     19.0929                2.8163
12877 3862.8     18.7063                2.816281
12951 3885       18.3265                2.81368
13025 3907.2     17.9394                2.815159
13099 3929.4     17.5604                2.814016
13173 3951.6     17.1754                2.815487
13247 3973.8     16.7948                2.81688
13321 3996       16.4045                2.817854
13395 4018.2     16.0248                2.816499
13469 4040.4     15.6379                2.816014
13543 4062.6     15.2617                2.81535
13617 4084.8     14.8716                2.81563
13691 4107       14.4907                2.815326
13765 4129.2     14.1054                2.816302
13839 4151.4     13.7307                2.815517
13913 4173.6     13.3498                2.814553
13987 4195.8     12.9618                2.811935
14061 4218       12.5814                2.810595
14135 4240.2     12.1995                2.807901
14209 4262.4     11.82373                 2.804415
14283 4284.6     11.4364                2.801213
14357 4306.8     11.0563                2.798433
14431 4329       10.6766                2.796808
14505 4351.2     10.3041                2.790573
14579 4373.4     9.922862                 2.784333
14653 4395.6     9.543452                 2.775982
14727 4417.8     9.164917                 2.767441
14801 4440       8.792324                 2.755667
14875 4462.2     8.414978                 2.740314
14949 4484.4     8.041762                 2.717683
15001 4500       7.781911                 2.697084