File: rawdata/SM_EC-EC_c3.txt
 SM_EC_EC
Creation Date : 12/21/2018 12:44:23 PM
User : PSCM

HeatFlow :
 Initial Mass : 0 mg
 Molar Mass : N/A

Index Time (s)   Furnace Temperature (Â°C) HeatFlow (mW)
1     0          82.9997                -0.211188
75    22.2       84.5001                -0.186487
149   44.4       84.426                -0.111476
223   66.6       84.2126                0.108063
297   88.8       83.9167                0.423813
371   111        83.5836                0.769776
445   133.2      83.2287                1.121444
519   155.4      82.86234                 1.441268
593   177.6      82.6146                1.724983
667   199.8      82.2339                1.961292
741   222        81.849                2.159965
815   244.2      81.4638                2.312562
889   266.4      81.0707                2.436065
963   288.6      80.6723                2.531174
1037  310.8      80.2782                2.606433
1111  333        79.8794                2.66432
1185  355.2      79.4852                2.707308
1259  377.4      79.0901                2.742693
1333  399.6      78.7018                2.761721
1407  421.8      78.3027                2.776335
1481  444        77.9167                2.785781
1555  466.2      77.5217                2.793848
1629  488.4      77.1416                2.798108
1703  510.6      76.7493                2.801199
1777  532.8      76.3604                2.800021
1851  555        75.9713                2.803435
1925  577.2      75.5852                2.802938
1999  599.4      75.19786                 2.799709
2073  621.6      74.8169                2.800749
2147  643.8      74.4335                2.804257
2221  666        74.05253                 2.804765
2295  688.2      73.6685                2.803719
2369  710.4      73.2813                2.805529
2443  732.6      72.8934                2.807033
2517  754.8      72.5046                2.810329
2591  777        72.1217                2.812124
2665  799.2      71.7323                2.813928
2739  821.4      71.347                2.816955
2813  843.6      70.958                2.816971
2887  865.8      70.58072                 2.791998
2961  888        70.19584                 2.772033
3035  910.2      69.8053                2.756446
3109  932.4      69.418                2.746401
3183  954.6      69.0348                2.758115
3257  976.8      68.65174                 2.773205
3331  999        68.2667                2.781992
3405  1021.2     67.8881                2.784423
3479  1043.4     67.507                2.788797
3553  1065.6     67.1253                2.787923
3627  1087.8     66.734                2.790586
3701  1110       66.3515                2.794671
3775  1132.2     65.9603                2.796166
3849  1154.4     65.5796                2.793135
3923  1176.6     65.1886                2.793083
3997  1198.8     64.8078                2.791197
4071  1221       64.417                2.792364
4145  1243.2     64.0422                2.790402
4219  1265.4     63.6547                2.787857
4293  1287.6     63.2634                2.787349
4367  1309.8     62.8766                2.788727
4441  1332       62.49511                 2.785767
4515  1354.2     62.1138                2.7889
4589  1376.4     61.7265                2.783222
4663  1398.6     61.34814                 2.784647
4737  1420.8     60.9681                2.785807
4811  1443       60.58487                 2.788071
4885  1465.2     60.196                2.785383
4959  1487.4     59.8118                2.78617
5033  1509.6     59.4216                2.788646
5107  1531.8     59.0435                2.784925
5181  1554       58.65256                 2.781641
5255  1576.2     58.2687                2.777805
5329  1598.4     57.8787                2.779752
5403  1620.6     57.5049                2.775844
5477  1642.8     57.1158                2.775205
5551  1665       56.7291                2.776188
5625  1687.2     56.34216                 2.779512
5699  1709.4     55.959                2.780902
5773  1731.6     55.5743                2.784433
5847  1753.8     55.1936                2.781822
5921  1776       54.8136                2.782019
5995  1798.2     54.4322                2.782265
6069  1820.4     54.05279                 2.782408
6143  1842.6     53.6619                2.783842
6217  1864.8     53.2766                2.783038
6291  1887       52.88908                 2.787391
6365  1909.2     52.5043                2.786553
6439  1931.4     52.1194                2.787356
6513  1953.6     51.7339                2.786803
6587  1975.8     51.3444                2.788076
6661  1998       50.9695                2.785098
6735  2020.2     50.5834                2.784465
6809  2042.4     50.1989                2.786294
6883  2064.6     49.8105                2.787805
6957  2086.8     49.429                2.791724
7031  2109       49.0401                2.789244
7105  2131.2     48.6607                2.78624
7179  2153.4     48.2811                2.786825
7253  2175.6     47.8969                2.789986
7327  2197.8     47.5142                2.790956
7401  2220       47.1313                2.794674
7475  2242.2     46.7484                2.794617
7549  2264.4     46.3581                2.796191
7623  2286.6     45.9747                2.797773
7697  2308.8     45.5864                2.799873
7771  2331       45.2076                2.795915
7845  2353.2     44.8151                2.799443
7919  2375.4     44.4364                2.797552
7993  2397.6     44.0479                2.798614
8067  2419.8     43.67035                 2.795342
8141  2442       43.2838                2.79919
8215  2464.2     42.8973                2.800464
8289  2486.4     42.5094                2.799547
8363  2508.6     42.1223                2.800572
8437  2530.8     41.749                2.800092
8511  2553       41.3633                2.80338
8585  2575.2     40.9834                2.802918
8659  2597.4     40.593                2.80369
8733  2619.6     40.2132                2.80421
8807  2641.8     39.8307                2.803769
8881  2664       39.444                2.804414
8955  2686.2     39.05678                 2.805484
9029  2708.4     38.6711                2.801269
9103  2730.6     38.2852                2.80342
9177  2752.8     37.9053                2.799367
9251  2775       37.5111                2.797559
9325  2797.2     37.1327                2.798652
9399  2819.4     36.7449                2.798984
9473  2841.6     36.3689                2.800321
9547  2863.8     35.98257                 2.799387
9621  2886       35.5944                2.797929
9695  2908.2     35.2111                2.800749
9769  2930.4     34.8257                2.800903
9843  2952.6     34.4443                2.802178
9917  2974.8     34.0607                2.803384
9991  2997       33.6733                2.804366
10065 3019.2     33.2979                2.805182
10139 3041.4     32.9192                2.804874
10213 3063.6     32.5289                2.804707
10287 3085.8     32.1443                2.803019
10361 3108       31.7568                2.804354
10435 3130.2     31.373                2.80183
10509 3152.4     30.9869                2.80335
10583 3174.6     30.6053                2.802001
10657 3196.8     30.2126                2.805537
10731 3219       29.8339                2.806633
10805 3241.2     29.4454                2.808305
10879 3263.4     29.0679                2.807244
10953 3285.6     28.6849                2.807788
11027 3307.8     28.2994                2.808078
11101 3330       27.91409                 2.808545
11175 3352.2     27.52504                 2.809492
11249 3374.4     27.1426                2.812034
11323 3396.6     26.7661                2.81406
11397 3418.8     26.3798                2.811726
11471 3441       25.9915                2.811445
11545 3463.2     25.6164                2.810165
11619 3485.4     25.2346                2.809369
11693 3507.6     24.8521                2.807163
11767 3529.8     24.4607                2.805676
11841 3552       24.0779                2.808035
11915 3574.2     23.6885                2.810621
11989 3596.4     23.31187                 2.809955
12063 3618.6     22.9217                2.809427
12137 3640.8     22.5355                2.809276
12211 3663       22.1521                2.80884
12285 3685.2     21.7755                2.80917
12359 3707.4     21.3889                2.812475
12433 3729.6     21.0057                2.812825
12507 3751.8     20.6207                2.815703
12581 3774       20.2364                2.817531
12655 3796.2     19.8527                2.817771
12729 3818.4     19.4672                2.817755
12803 3840.6     19.0932                2.816396
12877 3862.8     18.7062                2.818233
12951 3885       18.3266                2.816022
13025 3907.2     17.9378                2.814467
13099 3929.4     17.5592                2.81417
13173 3951.6     17.1775                2.816632
13247 3973.8     16.7942                2.816501
13321 3996       16.4052                2.81579
13395 4018.2     16.0222                2.815231
13469 4040.4     15.6375                2.814168
13543 4062.6     15.26052                 2.816338
13617 4084.8     14.8722                2.81642
13691 4107       14.4905                2.816046
13765 4129.2     14.1038                2.817574
13839 4151.4     13.7332                2.815771
13913 4173.6     13.3507                2.81369
13987 4195.8     12.9603                2.811776
14061 4218       12.58187                 2.809266
14135 4240.2     12.198                2.808116
14209 4262.4     11.8227                2.804417
14283 4284.6     11.437                2.801096
14357 4306.8     11.0562                2.798322
14431 4329       10.6795                2.795778
14505 4351.2     10.3018                2.791159
14579 4373.4     9.922195                 2.784574
14653 4395.6     9.54385                  2.779958
14727 4417.8     9.165369                 2.771265
14801 4440       8.793314                 2.758557
14875 4462.2     8.417381                 2.743972
14949 4484.4     8.041502                 2.722006
15001 4500       7.779739                 2.701607