File: rawdata/SM_EC-EC_h1.txt
 SM_EC_EC
Creation Date : 12/21/2018 12:42:56 PM
User : PSCM

HeatFlow :
 Initial Mass : 0 mg
 Molar Mass : N/A

Index Time (s)   Furnace Temperature (Â°C) HeatFlow (mW)
1     0          4.556093                 -0.138715
77    22.8       3.625502                 -0.144951
153   45.6       3.334979                 -0.145237
229   68.4       3.459899                 -0.282908
305   91.2       3.712522                 -0.542923
381   114        4.024147                 -0.868854
457   136.8      4.370824                 -1.210131
533   159.6      4.738615                 -1.537005
609   182.4      4.948761                 -1.823364
685   205.2      5.312716                 -2.068495
761   228        5.704957                 -2.270562
837   250.8      6.112948                 -2.430775
913   273.6      6.532538                 -2.551679
989   296.4      6.95235                  -2.643742
1065  319.2      7.369347                 -2.711617
1141  342        7.786774                 -2.762024
1217  364.8      8.209283                 -2.793815
1293  387.6      8.626184                 -2.815705
1369  410.4      9.038636                 -2.828217
1445  433.2      9.443799                 -2.835687
1521  456        9.850764                 -2.835887
1597  478.8      10.2605                -2.835499
1673  501.6      10.66464                 -2.83261
1749  524.4      11.06523                 -2.832131
1825  547.2      11.4692                -2.827626
1901  570        11.8726                -2.825146
1977  592.8      12.2701                -2.824199
2053  615.6      12.6692                -2.821968
2129  638.4      13.0681                -2.815833
2205  661.2      13.47087                 -2.814378
2281  684        13.8639                -2.811819
2357  706.8      14.2616                -2.813843
2433  729.6      14.6637                -2.810809
2509  752.4      15.0602                -2.80922
2585  775.2      15.4492                -2.806811
2661  798        15.8439                -2.806849
2737  820.8      16.2422                -2.802522
2813  843.6      16.6434                -2.802496
2889  866.4      17.0399                -2.804295
2965  889.2      17.4306                -2.807134
3041  912        17.8314                -2.807788
3117  934.8      18.2302                -2.808758
3193  957.6      18.6205                -2.812792
3269  980.4      19.0173                -2.812625
3345  1003.2     19.4147                -2.813362
3421  1026       19.8118                -2.811219
3497  1048.8     20.2063                -2.809684
3573  1071.6     20.5979                -2.812122
3649  1094.4     20.9961                -2.81414
3725  1117.2     21.387                -2.813486
3801  1140       21.7857                -2.813104
3877  1162.8     22.176                -2.810463
3953  1185.6     22.57302                 -2.807686
4029  1208.4     22.9627                -2.804023
4105  1231.2     23.362                -2.803354
4181  1254       23.7541                -2.80521
4257  1276.8     24.1563                -2.805747
4333  1299.6     24.5429                -2.80557
4409  1322.4     24.9417                -2.810403
4485  1345.2     25.3293                -2.811108
4561  1368       25.7296                -2.808928
4637  1390.8     26.1208                -2.805499
4713  1413.6     26.5219                -2.807805
4789  1436.4     26.9113                -2.807065
4865  1459.2     27.312                -2.808661
4941  1482       27.7037                -2.806434
5017  1504.8     28.1066                -2.80781
5093  1527.6     28.498                -2.806202
5169  1550.4     28.8937                -2.806529
5245  1573.2     29.284                -2.801538
5321  1596       29.6819                -2.800644
5397  1618.8     30.0757                -2.800264
5473  1641.6     30.4666                -2.801458
5549  1664.4     30.8627                -2.801992
5625  1687.2     31.258                -2.805417
5701  1710       31.6544                -2.806654
5777  1732.8     32.049                -2.806872
5853  1755.6     32.4452                -2.803424
5929  1778.4     32.8465                -2.802695
6005  1801.2     33.23529                 -2.800965
6081  1824       33.6306                -2.804278
6157  1846.8     34.0289                -2.804076
6233  1869.6     34.4262                -2.804871
6309  1892.4     34.8207                -2.804569
6385  1915.2     35.2148                -2.805364
6461  1938       35.6088                -2.805229
6537  1960.8     36.0108                -2.802562
6613  1983.6     36.4093                -2.803051
6689  2006.4     36.8005                -2.804378
6765  2029.2     37.1968                -2.802494
6841  2052       37.5886                -2.804721
6917  2074.8     37.9838                -2.807284
6993  2097.6     38.3754                -2.807801
7069  2120.4     38.7713                -2.805759
7145  2143.2     39.162                -2.803214
7221  2166       39.5589                -2.804661
7297  2188.8     39.9508                -2.804244
7373  2211.6     40.3527                -2.807198
7449  2234.4     40.73862                 -2.804458
7525  2257.2     41.1343                -2.804355
7601  2280       41.5291                -2.803651
7677  2302.8     41.9272                -2.799363
7753  2325.6     42.3185                -2.7974
7829  2348.4     42.7184                -2.79775
7905  2371.2     43.1092                -2.797602
7981  2394       43.51192                 -2.798648
8057  2416.8     43.9025                -2.797218
8133  2439.6     44.2985                -2.798459
8209  2462.4     44.6885                -2.798984
8285  2485.2     45.0843                -2.800101
8361  2508       45.4753                -2.794467
8437  2530.8     45.8731                -2.792289
8513  2553.6     46.2633                -2.789504
8589  2576.4     46.66194                 -2.791378
8665  2599.2     47.0626                -2.789785
8741  2622       47.4616                -2.790266
8817  2644.8     47.8526                -2.78915
8893  2667.6     48.2449                -2.789815
8969  2690.4     48.63914                 -2.785218
9045  2713.2     49.0424                -2.784632
9121  2736       49.4357                -2.783851
9197  2758.8     49.828                -2.78983
9273  2781.6     50.2295                -2.790953
9349  2804.4     50.6268                -2.794169
9425  2827.2     51.0204                -2.795056
9501  2850       51.4145                -2.797191
9577  2872.8     51.807                -2.792545
9653  2895.6     52.1988                -2.790023
9729  2918.4     52.5925                -2.792776
9805  2941.2     52.9879                -2.794776
9881  2964       53.3844                -2.796752
9957  2986.8     53.777                -2.793991
10033 3009.6     54.174                -2.795781
10109 3032.4     54.56356                 -2.795765
10185 3055.2     54.9601                -2.791224
10261 3078       55.3519                -2.787727
10337 3100.8     55.7511                -2.789123
10413 3123.6     56.141                -2.789169
10489 3146.4     56.5431                -2.788448
10565 3169.2     56.9343                -2.787349
10641 3192       57.3311                -2.786217
10717 3214.8     57.7212                -2.788548
10793 3237.6     58.1161                -2.788087
10869 3260.4     58.5054                -2.786783
10945 3283.2     58.9021                -2.782029
11021 3306       59.2968                -2.783966
11097 3328.8     59.6954                -2.784749
11173 3351.6     60.09379                 -2.783553
11249 3374.4     60.4944                -2.782478
11325 3397.2     60.8834                -2.783236
11401 3420       61.2771                -2.781088
11477 3442.8     61.6726                -2.782716
11553 3465.6     62.0771                -2.781428
11629 3488.4     62.47119                 -2.78156
11705 3511.2     62.865                -2.787468
11781 3534       63.265                -2.788852
11857 3556.8     63.6595                -2.789544
11933 3579.6     64.05155                 -2.788741
12009 3602.4     64.4431                -2.791837
12085 3625.2     64.83779                 -2.788818
12161 3648       65.2303                -2.786099
12237 3670.8     65.62737                 -2.788556
12313 3693.6     66.0209                -2.790377
12389 3716.4     66.4176                -2.791624
12465 3739.2     66.8033                -2.788208
12541 3762       67.20304                 -2.786968
12617 3784.8     67.5968                -2.788117
12693 3807.6     67.9955                -2.787225
12769 3830.4     68.385                -2.78017
12845 3853.2     68.784                -2.784177
12921 3876       69.1764                -2.784061
12997 3898.8     69.5686                -2.787287
13073 3921.6     69.961                -2.785055
13149 3944.4     70.3567                -2.789188
13225 3967.2     70.749                -2.789063
13301 3990       71.14752                 -2.788158
13377 4012.8     71.5437                -2.78428
13453 4035.6     71.9434                -2.785573
13529 4058.4     72.3332                -2.784147
13605 4081.2     72.7291                -2.785636
13681 4104       73.1311                -2.787312
13757 4126.8     73.5292                -2.783247
13833 4149.6     73.9233                -2.784377
13909 4172.4     74.3196                -2.782127
13985 4195.2     74.7145                -2.782555
14061 4218       75.1096                -2.779557
14137 4240.8     75.5022                -2.785161
14213 4263.6     75.8947                -2.789814
14289 4286.4     76.2893                -2.784213
14365 4309.2     76.6826                -2.788158
14441 4332       77.0821                -2.790734
14517 4354.8     77.4665                -2.792392
14593 4377.6     77.8652                -2.790106
14669 4400.4     78.2588                -2.787321
14745 4423.2     78.6568                -2.787261
14821 4446       79.0481                -2.791047
14897 4468.8     79.4482                -2.791387
14973 4491.6     79.8405                -2.789454
15001 4500       79.9874                -2.789785