File: rawdata/SM_LPS_in_H2O_c2.txt
SM_LPS_in_H2O
Creation Date : 12/20/2018 2:24:09 PM
User : PSCM

HeatFlow :
 Initial Mass : 497 mg
 Molar Mass : N/A

Index Time (s)   Furnace Temperature (Â°C) HeatFlow (mW)
1     0          83.576                -0.224625
75    22.2       84.4981                -0.218018
149   44.4       84.4307                -0.299656
223   66.6       84.2148                -0.375481
297   88.8       83.9192                -0.396114
371   111        83.5849                -0.365626
445   133.2      83.22947                 -0.291298
519   155.4      82.8631                -0.194869
593   177.6      82.6141                -0.087318
667   199.8      82.2321                0.015136
741   222        81.8485                0.113294
815   244.2      81.4637                0.198648
889   266.4      81.0705                0.272112
963   288.6      80.6722                0.331939
1037  310.8      80.2784                0.382665
1111  333        79.8795                0.421512
1185  355.2      79.485                0.454249
1259  377.4      79.0911                0.482676
1333  399.6      78.7012                0.503779
1407  421.8      78.3029                0.519043
1481  444        77.917                0.526871
1555  466.2      77.5214                0.53605
1629  488.4      77.14066                 0.542562
1703  510.6      76.7519                0.545867
1777  532.8      76.3598                0.547518
1851  555        75.971                0.550084
1925  577.2      75.5855                0.55152
1999  599.4      75.1996                0.5513
2073  621.6      74.8165                0.554051
2147  643.8      74.4357                0.550317
2221  666        74.0553                0.554154
2295  688.2      73.6666                0.552058
2369  710.4      73.2803                0.552468
2443  732.6      72.8941                0.553296
2517  754.8      72.5042                0.555193
2591  777        72.1209                0.558121
2665  799.2      71.7319                0.560046
2739  821.4      71.347                0.560499
2813  843.6      70.9561                0.560558
2887  865.8      70.5808                0.558264
2961  888        70.1937                0.557285
3035  910.2      69.80456                 0.553402
3109  932.4      69.4186                0.554597
3183  954.6      69.0353                0.554605
3257  976.8      68.6524                0.55428
3331  999        68.2665                0.556993
3405  1021.2     67.8869                0.555691
3479  1043.4     67.5077                0.555181
3553  1065.6     67.1242                0.552943
3627  1087.8     66.73441                 0.551977
3701  1110       66.3492                0.547021
3775  1132.2     65.9594                0.548366
3849  1154.4     65.5795                0.5458
3923  1176.6     65.1895                0.544038
3997  1198.8     64.806                0.552611
4071  1221       64.4142                0.556276
4145  1243.2     64.042                0.559842
4219  1265.4     63.6539                0.561312
4293  1287.6     63.2636                0.561967
4367  1309.8     62.87953                 0.565017
4441  1332       62.4973                0.563922
4515  1354.2     62.1113                0.565626
4589  1376.4     61.727                0.566183
4663  1398.6     61.3495                0.56729
4737  1420.8     60.969                0.566576
4811  1443       60.586                0.563089
4885  1465.2     60.1972                0.560031
4959  1487.4     59.8118                0.558288
5033  1509.6     59.4244                0.556178
5107  1531.8     59.0413                0.55542
5181  1554       58.6531                0.555748
5255  1576.2     58.2675                0.554364
5329  1598.4     57.8777                0.556733
5403  1620.6     57.5063                0.554899
5477  1642.8     57.1144                0.553257
5551  1665       56.729                0.553027
5625  1687.2     56.3413                0.551997
5699  1709.4     55.9604                0.552967
5773  1731.6     55.5744                0.553797
5847  1753.8     55.1922                0.555362
5921  1776       54.8137                0.554061
5995  1798.2     54.4313                0.558895
6069  1820.4     54.0517                0.557168
6143  1842.6     53.6634                0.557475
6217  1864.8     53.2771                0.557868
6291  1887       52.8864                0.557246
6365  1909.2     52.5067                0.558581
6439  1931.4     52.1196                0.559957
6513  1953.6     51.73393                 0.560516
6587  1975.8     51.3458                0.560068
6661  1998       50.9694                0.561062
6735  2020.2     50.5832                0.556867
6809  2042.4     50.1999                0.555268
6883  2064.6     49.8098                0.551792
6957  2086.8     49.4268                0.552238
7031  2109       49.03972                 0.551929
7105  2131.2     48.6619                0.553452
7179  2153.4     48.28                0.546972
7253  2175.6     47.8992                0.549107
7327  2197.8     47.5142                0.547316
7401  2220       47.1315                0.547056
7475  2242.2     46.74825                 0.545228
7549  2264.4     46.3582                0.547378
7623  2286.6     45.9762                0.547964
7697  2308.8     45.588                0.549354
7771  2331       45.2071                0.548291
7845  2353.2     44.81585                 0.551404
7919  2375.4     44.4358                0.549759
7993  2397.6     44.0472                0.546044
8067  2419.8     43.6709                0.54805
8141  2442       43.2829                0.545633
8215  2464.2     42.8958                0.549261
8289  2486.4     42.5101                0.547729
8363  2508.6     42.1215                0.548433
8437  2530.8     41.7481                0.548684
8511  2553       41.3642                0.547196
8585  2575.2     40.9821                0.547423
8659  2597.4     40.5936                0.548397
8733  2619.6     40.2139                0.547483
8807  2641.8     39.8298                0.548901
8881  2664       39.4433                0.550147
8955  2686.2     39.0564                0.551307
9029  2708.4     38.6731                0.548431
9103  2730.6     38.2837                0.549219
9177  2752.8     37.9043                0.550446
9251  2775       37.512                0.548753
9325  2797.2     37.1323                0.546722
9399  2819.4     36.74441                 0.547681
9473  2841.6     36.3691                0.548298
9547  2863.8     35.9815                0.550183
9621  2886       35.5914                0.54817
9695  2908.2     35.2113                0.545566
9769  2930.4     34.8254                0.546238
9843  2952.6     34.4446                0.54394
9917  2974.8     34.05899                 0.542608
9991  2997       33.6755                0.542395
10065 3019.2     33.2958                0.543865
10139 3041.4     32.9178                0.545436
10213 3063.6     32.5277                0.546532
10287 3085.8     32.1444                0.544167
10361 3108       31.7562                0.544827
10435 3130.2     31.3744                0.544386
10509 3152.4     30.9854                0.542309
10583 3174.6     30.6054                0.540561
10657 3196.8     30.2122                0.539542
10731 3219       29.83298                 0.539285
10805 3241.2     29.4477                0.542359
10879 3263.4     29.0691                0.541513
10953 3285.6     28.6867                0.540299
11027 3307.8     28.2977                0.540486
11101 3330       27.91641                 0.539758
11175 3352.2     27.5245                0.541515
11249 3374.4     27.1453                0.542674
11323 3396.6     26.7659                0.543597
11397 3418.8     26.3829                0.546982
11471 3441       25.9942                0.548853
11545 3463.2     25.617                0.547975
11619 3485.4     25.236                0.550692
11693 3507.6     24.85245                 0.550213
11767 3529.8     24.4616                0.55108
11841 3552       24.0772                0.550032
11915 3574.2     23.68686                 0.548603
11989 3596.4     23.31152                 0.551993
12063 3618.6     22.9225                0.551815
12137 3640.8     22.5362                0.553689
12211 3663       22.1507                0.55392
12285 3685.2     21.7771                0.553423
12359 3707.4     21.3864                0.552444
12433 3729.6     21.0069                0.5529
12507 3751.8     20.6199                0.552423
12581 3774       20.2372                0.554637
12655 3796.2     19.8535                0.556967
12729 3818.4     19.4648                0.5563
12803 3840.6     19.0907                0.555646
12877 3862.8     18.7057                0.557681
12951 3885       18.3271                0.558753
13025 3907.2     17.9396                0.557847
13099 3929.4     17.56116                 0.557297
13173 3951.6     17.1768                0.558432
13247 3973.8     16.7945                0.558924
13321 3996       16.406                0.560274
13395 4018.2     16.0223                0.559034
13469 4040.4     15.6369                0.5604
13543 4062.6     15.2592                0.56003
13617 4084.8     14.8709                0.560837
13691 4107       14.4908                0.558677
13765 4129.2     14.1018                0.560236
13839 4151.4     13.7339                0.562079
13913 4173.6     13.3493                0.563017
13987 4195.8     12.9586                0.562936
14061 4218       12.5806                0.563961
14135 4240.2     12.19896                 0.564714
14209 4262.4     11.82126                 0.563582
14283 4284.6     11.4355                0.562827
14357 4306.8     11.0538                0.563641
14431 4329       10.6785                0.564642
14505 4351.2     10.3035                0.566698
14579 4373.4     9.920727                 0.56867
14653 4395.6     9.543344                 0.569449
14727 4417.8     9.163403                 0.572057
14801 4440       8.791276                 0.575778
14875 4462.2     8.413281                 0.583726
14949 4484.4     8.039023                 0.59407
15001 4500       7.776266                 0.603122