File: rawdata/SM_LPS_in_H2O_c3.txt
SM_LPS_in_H2O
Creation Date : 12/20/2018 2:24:36 PM
User : PSCM

HeatFlow :
 Initial Mass : 497 mg
 Molar Mass : N/A

Index Time (s)   Furnace Temperature (Â°C) HeatFlow (mW)
1     0          82.8761                -0.219553
75    22.2       84.489                -0.213675
149   44.4       84.4166                -0.2929
223   66.6       84.20886                 -0.369895
297   88.8       83.9123                -0.393337
371   111        83.5806                -0.365348
445   133.2      83.22612                 -0.293759
519   155.4      82.86047                 -0.19707
593   177.6      82.6154                -0.088853
667   199.8      82.23264                 0.019721
741   222        81.8476                0.118785
815   244.2      81.4637                0.208455
889   266.4      81.0708                0.276667
963   288.6      80.6701                  0.341168
1037  310.8      80.2762                0.389171
1111  333        79.8802                0.431074
1185  355.2      79.4844                0.462935
1259  377.4      79.0926                0.495359
1333  399.6      78.7013                0.514304
1407  421.8      78.3031                0.529839
1481  444        77.917                0.540762
1555  466.2      77.522                0.549035
1629  488.4      77.1418                0.55617
1703  510.6      76.7511                0.561928
1777  532.8      76.3603                0.564415
1851  555        75.9724                0.564758
1925  577.2      75.5852                0.565546
1999  599.4      75.2022                0.566588
2073  621.6      74.8166                0.568704
2147  643.8      74.4337                0.565102
2221  666        74.0529                0.566878
2295  688.2      73.6671                0.568847
2369  710.4      73.2817                0.563218
2443  732.6      72.8939                0.558134
2517  754.8      72.5042                0.558334
2591  777        72.122                0.559069
2665  799.2      71.7325                0.558396
2739  821.4      71.3459                0.558341
2813  843.6      70.956                0.556936
2887  865.8      70.582                0.559548
2961  888        70.1937                0.558522
3035  910.2      69.8047                0.555508
3109  932.4      69.4184                0.555504
3183  954.6      69.0347                0.555124
3257  976.8      68.65276                 0.559346
3331  999        68.2666                0.554033
3405  1021.2     67.8878                0.549481
3479  1043.4     67.5065                0.553914
3553  1065.6     67.1243                0.55066
3627  1087.8     66.7364                0.549879
3701  1110       66.35                0.545462
3775  1132.2     65.9602                0.54946
3849  1154.4     65.5791                0.547394
3923  1176.6     65.1895                0.548199
3997  1198.8     64.8057                0.549068
4071  1221       64.4176                0.550056
4145  1243.2     64.0414                0.549688
4219  1265.4     63.6543                0.54699
4293  1287.6     63.2655                0.54714
4367  1309.8     62.8774                0.545093
4441  1332       62.4952                0.548754
4515  1354.2     62.1145                0.550717
4589  1376.4     61.7278                0.549978
4663  1398.6     61.3488                0.549373
4737  1420.8     60.9689                0.551382
4811  1443       60.5832                0.547329
4885  1465.2     60.195                0.543973
4959  1487.4     59.8123                0.542103
5033  1509.6     59.4235                0.53861
5107  1531.8     59.0429                0.542666
5181  1554       58.6533                0.540957
5255  1576.2     58.2699                0.539248
5329  1598.4     57.879                0.540051
5403  1620.6     57.5045                0.538258
5477  1642.8     57.118                0.534388
5551  1665       56.7284                0.531756
5625  1687.2     56.3422                0.52939
5699  1709.4     55.95772                 0.535797
5773  1731.6     55.5748                0.540782
5847  1753.8     55.1931                0.54411
5921  1776       54.8127                0.544567
5995  1798.2     54.4321                0.546369
6069  1820.4     54.05248                 0.548628
6143  1842.6     53.6643                0.547547
6217  1864.8     53.2781                0.546789
6291  1887       52.8882                0.54935
6365  1909.2     52.5077                0.548537
6439  1931.4     52.1192                0.550358
6513  1953.6     51.7356                0.551495
6587  1975.8     51.3456                0.549832
6661  1998       50.9708                0.552224
6735  2020.2     50.5811                0.550133
6809  2042.4     50.1994                0.550365
6883  2064.6     49.8121                0.551156
6957  2086.8     49.4287                0.550826
7031  2109       49.0415                0.554007
7105  2131.2     48.661                0.552399
7179  2153.4     48.2793                0.550176
7253  2175.6     47.8993                0.549502
7327  2197.8     47.5127                0.54718
7401  2220       47.13051                 0.54734
7475  2242.2     46.7481                0.545116
7549  2264.4     46.3588                0.549218
7623  2286.6     45.9762                0.549631
7697  2308.8     45.5883                0.551067
7771  2331       45.2084                0.552066
7845  2353.2     44.8155                0.553396
7919  2375.4     44.4366                0.552205
7993  2397.6     44.0485                0.552885
8067  2419.8     43.6713                0.550925
8141  2442       43.2847                0.549797
8215  2464.2     42.8976                0.550011
8289  2486.4     42.51                0.552628
8363  2508.6     42.1217                0.550887
8437  2530.8     41.7499                0.548985
8511  2553       41.3625                0.550369
8585  2575.2     40.98286                 0.550501
8659  2597.4     40.5907                0.550114
8733  2619.6     40.2129                0.550166
8807  2641.8     39.8304                0.553253
8881  2664       39.4444                0.551656
8955  2686.2     39.0561                0.556827
9029  2708.4     38.67256                 0.553287
9103  2730.6     38.285                0.553977
9177  2752.8     37.9046                0.553592
9251  2775       37.5115                0.549142
9325  2797.2     37.1324                0.548526
9399  2819.4     36.7443                0.548972
9473  2841.6     36.3692                0.549669
9547  2863.8     35.9829                0.549557
9621  2886       35.5942                0.548616
9695  2908.2     35.2109                0.545445
9769  2930.4     34.826                0.545644
9843  2952.6     34.4447                0.543028
9917  2974.8     34.0586                0.542963
9991  2997       33.6759                0.543633
10065 3019.2     33.2958                0.544769
10139 3041.4     32.9188                0.545153
10213 3063.6     32.5284                0.54428
10287 3085.8     32.1453                0.544659
10361 3108       31.7571                0.543333
10435 3130.2     31.3734                0.542205
10509 3152.4     30.9846                0.53918
10583 3174.6     30.60543                 0.539159
10657 3196.8     30.2131                0.538913
10731 3219       29.8343                0.542587
10805 3241.2     29.44593                 0.541653
10879 3263.4     29.0685                0.541693
10953 3285.6     28.6839                0.541453
11027 3307.8     28.2996                0.54267
11101 3330       27.91475                 0.544667
11175 3352.2     27.52441                 0.543673
11249 3374.4     27.14259                 0.545073
11323 3396.6     26.7664                0.546063
11397 3418.8     26.3798                0.550022
11471 3441       25.992                0.549879
11545 3463.2     25.6178                0.550346
11619 3485.4     25.2348                0.549361
11693 3507.6     24.851                0.549149
11767 3529.8     24.4603                0.549363
11841 3552       24.0765                0.548441
11915 3574.2     23.6885                0.550753
11989 3596.4     23.3138                0.55105
12063 3618.6     22.9185                0.550898
12137 3640.8     22.5389                0.551072
12211 3663       22.1517                0.550832
12285 3685.2     21.77665                 0.550938
12359 3707.4     21.3884                0.552943
12433 3729.6     21.0066                0.551517
12507 3751.8     20.619                0.551064
12581 3774       20.23647                 0.552842
12655 3796.2     19.8547                0.555252
12729 3818.4     19.4651                0.554828
12803 3840.6     19.0925                0.556563
12877 3862.8     18.7055                0.557051
12951 3885       18.32778                 0.557211
13025 3907.2     17.937                0.558291
13099 3929.4     17.55992                 0.557926
13173 3951.6     17.1764                0.55742
13247 3973.8     16.7932                0.558363
13321 3996       16.4041                0.558846
13395 4018.2     16.0206                0.560098
13469 4040.4     15.63593                 0.559922
13543 4062.6     15.2609                0.559034
13617 4084.8     14.8716                0.558966
13691 4107       14.49                0.559372
13765 4129.2     14.1036                0.560505
13839 4151.4     13.7312                0.561474
13913 4173.6     13.3501                0.562281
13987 4195.8     12.9603                  0.562987
14061 4218       12.5821                0.563509
14135 4240.2     12.1976                  0.564188
14209 4262.4     11.8198                0.565016
14283 4284.6     11.4369                0.569319
14357 4306.8     11.057                0.574359
14431 4329       10.6791                0.57829
14505 4351.2     10.3025                0.57967
14579 4373.4     9.921614                 0.578216
14653 4395.6     9.542294                 0.577838
14727 4417.8     9.16323                  0.577005
14801 4440       8.791655                 0.580598
14875 4462.2     8.414403                 0.586989
14949 4484.4     8.039297                 0.596329
15001 4500       7.77823                  0.604008