File: rawdata/SM_LPS_in_H2O_c1.txt
SM_LPS_in_H2O
Creation Date : 12/20/2018 2:23:31 PM
User : PSCM

HeatFlow :
 Initial Mass : 497 mg
 Molar Mass : N/A

Index Time (s)   Furnace Temperature (Â°C) HeatFlow (mW)
1     0          83.0716                -0.21552
75    22.2       84.53871                 -0.211064
149   44.4       84.4509                -0.290737
223   66.6       84.2272                -0.378292
297   88.8       83.9257                -0.414432
371   111        83.5908                -0.395112
445   133.2      83.2343                -0.32922
519   155.4      82.8672                -0.237904
593   177.6      82.6129                -0.133844
667   199.8      82.2344                -0.023881
741   222        81.8486                0.07282
815   244.2      81.4637                0.160705
889   266.4      81.0712                0.232067
963   288.6      80.6728                0.29335
1037  310.8      80.2777                0.346792
1111  333        79.8799                0.392165
1185  355.2      79.4848                0.425202
1259  377.4      79.0901                0.453749
1333  399.6      78.7022                0.473272
1407  421.8      78.3036                0.485065
1481  444        77.9166                0.489904
1555  466.2      77.5225                0.514159
1629  488.4      77.142                0.536219
1703  510.6      76.7501                0.552195
1777  532.8      76.3595                0.559074
1851  555        75.9718                0.568371
1925  577.2      75.5853                0.575532
1999  599.4      75.1998                0.580384
2073  621.6      74.81548                 0.586212
2147  643.8      74.43569                 0.589136
2221  666        74.0538                0.585679
2295  688.2      73.6687                0.587988
2369  710.4      73.2811                0.588376
2443  732.6      72.8945                0.589512
2517  754.8      72.5042                0.591184
2591  777        72.1219                0.595219
2665  799.2      71.7329                0.597937
2739  821.4      71.3469                0.596112
2813  843.6      70.9579                0.592188
2887  865.8      70.5808                0.589171
2961  888        70.1944                0.584581
3035  910.2      69.8051                0.581777
3109  932.4      69.4177                0.579166
3183  954.6      69.0348                0.574747
3257  976.8      68.6518                0.577463
3331  999        68.2657                0.57721
3405  1021.2     67.8885                0.576186
3479  1043.4     67.508                0.574911
3553  1065.6     67.1256                0.571824
3627  1087.8     66.7357                0.571511
3701  1110       66.3495                0.571387
3775  1132.2     65.96138                 0.570667
3849  1154.4     65.57957                 0.569471
3923  1176.6     65.1899                0.568402
3997  1198.8     64.80763                 0.570447
4071  1221       64.4177                0.570275
4145  1243.2     64.0431                0.568407
4219  1265.4     63.6533                0.569237
4293  1287.6     63.2635                0.563033
4367  1309.8     62.8772                0.566271
4441  1332       62.4966                0.565604
4515  1354.2     62.1137                0.565046
4589  1376.4     61.7265                0.56281
4663  1398.6     61.3495                0.561724
4737  1420.8     60.9702                0.563927
4811  1443       60.5848                0.562691
4885  1465.2     60.1971                0.557206
4959  1487.4     59.81164                 0.555231
5033  1509.6     59.4228                0.55447
5107  1531.8     59.042                0.553608
5181  1554       58.6537                0.553733
5255  1576.2     58.2707                0.55035
5329  1598.4     57.8803                0.550978
5403  1620.6     57.5044                0.549237
5477  1642.8     57.1159                0.547401
5551  1665       56.728                0.546638
5625  1687.2     56.3443                0.545072
5699  1709.4     55.95857                 0.546742
5773  1731.6     55.57488                 0.546892
5847  1753.8     55.1927                  0.548298
5921  1776       54.813                0.54686
5995  1798.2     54.4314                0.550403
6069  1820.4     54.0513                0.545234
6143  1842.6     53.66184                 0.546136
6217  1864.8     53.2767                0.543935
6291  1887       52.8885                0.544704
6365  1909.2     52.5056                0.545203
6439  1931.4     52.119                0.54567
6513  1953.6     51.7338                0.548809
6587  1975.8     51.3469                0.549238
6661  1998       50.9691                0.547726
6735  2020.2     50.584                0.546526
6809  2042.4     50.1994                0.545802
6883  2064.6     49.8093                0.545563
6957  2086.8     49.4283                0.547996
7031  2109       49.039                0.548672
7105  2131.2     48.6591                0.548049
7179  2153.4     48.2802                0.546213
7253  2175.6     47.8974                0.546484
7327  2197.8     47.5128                0.544574
7401  2220       47.1325                0.547589
7475  2242.2     46.7478                0.546176
7549  2264.4     46.3613                0.546415
7623  2286.6     45.97519                 0.547314
7697  2308.8     45.5886                0.548677
7771  2331       45.2083                0.549152
7845  2353.2     44.8147                0.549611
7919  2375.4     44.437                0.551993
7993  2397.6     44.0476                0.549932
8067  2419.8     43.6708                0.547247
8141  2442       43.2833                0.546678
8215  2464.2     42.8977                0.544798
8289  2486.4     42.5091                0.549351
8363  2508.6     42.1218                0.548565
8437  2530.8     41.7475                0.546795
8511  2553       41.3643                0.548338
8585  2575.2     40.9825                0.547272
8659  2597.4     40.5937                0.546385
8733  2619.6     40.2126                0.548304
8807  2641.8     39.8316                0.547293
8881  2664       39.4442                0.548476
8955  2686.2     39.0553                0.549794
9029  2708.4     38.6723                0.549067
9103  2730.6     38.2855                0.551618
9177  2752.8     37.905                0.547881
9251  2775       37.5107                0.549581
9325  2797.2     37.1334                0.547933
9399  2819.4     36.744                0.545429
9473  2841.6     36.3686                0.547486
9547  2863.8     35.9815                0.54871
9621  2886       35.5932                0.54669
9695  2908.2     35.2119                0.544998
9769  2930.4     34.8254                0.545667
9843  2952.6     34.4445                0.544662
9917  2974.8     34.059                0.544348
9991  2997       33.6729                0.54491
10065 3019.2     33.29571                 0.546737
10139 3041.4     32.9189                0.549241
10213 3063.6     32.5282                0.549441
10287 3085.8     32.1448                0.548484
10361 3108       31.7574                0.547043
10435 3130.2     31.3744                0.549267
10509 3152.4     30.9866                0.546992
10583 3174.6     30.6053                0.545496
10657 3196.8     30.2128                0.543707
10731 3219       29.8346                0.542564
10805 3241.2     29.4443                0.546472
10879 3263.4     29.0706                0.54342
10953 3285.6     28.6831                0.542242
11027 3307.8     28.2999                0.541608
11101 3330       27.9146                0.541117
11175 3352.2     27.5256                0.539042
11249 3374.4     27.1431                0.540237
11323 3396.6     26.7665                0.541478
11397 3418.8     26.3809                0.544683
11471 3441       25.9906                0.544625
11545 3463.2     25.6183                0.543072
11619 3485.4     25.2351                0.545039
11693 3507.6     24.8504                0.543143
11767 3529.8     24.4607                0.543423
11841 3552       24.0784                0.542386
11915 3574.2     23.687                0.543202
11989 3596.4     23.31                0.544961
12063 3618.6     22.9223                0.547582
12137 3640.8     22.5372                0.548207
12211 3663       22.1512                0.549216
12285 3685.2     21.7756                0.550563
12359 3707.4     21.388                0.550762
12433 3729.6     21.006                0.551
12507 3751.8     20.6184                0.553662
12581 3774       20.2366                0.554188
12655 3796.2     19.8539                0.555216
12729 3818.4     19.46529                 0.5556
12803 3840.6     19.0926                0.556279
12877 3862.8     18.7056                0.55851
12951 3885       18.3258                0.558493
13025 3907.2     17.93754                 0.557748
13099 3929.4     17.5601                0.556411
13173 3951.6     17.1756                0.557769
13247 3973.8     16.794                0.556838
13321 3996       16.405                0.558939
13395 4018.2     16.0218                0.558626
13469 4040.4     15.6379                0.558608
13543 4062.6     15.2605                0.558467
13617 4084.8     14.8709                0.558196
13691 4107       14.4897                0.557814
13765 4129.2     14.10493                 0.558698
13839 4151.4     13.7304                0.560776
13913 4173.6     13.3527                0.561918
13987 4195.8     12.96                0.561873
14061 4218       12.5824                0.562832
14135 4240.2     12.19759                 0.562755
14209 4262.4     11.819                0.562139
14283 4284.6     11.4354                0.561721
14357 4306.8     11.0537                0.562359
14431 4329       10.6782                0.563342
14505 4351.2     10.3022                0.566275
14579 4373.4     9.921312                 0.566662
14653 4395.6     9.54358                  0.56869
14727 4417.8     9.163188                 0.57095
14801 4440       8.791381                 0.574715
14875 4462.2     8.413178                 0.582853
14949 4484.4     8.037215                 0.592242
15001 4500       7.774359                 0.599808