File: rawdata/SM_LPS_in_H2O_h2.txt
SM_LPS_in_H2O
Creation Date : 12/20/2018 2:23:53 PM
User : PSCM

HeatFlow :
 Initial Mass : 497 mg
 Molar Mass : N/A

Index Time (s)   Furnace Temperature (Â°C) HeatFlow (mW)
1     0          4.44332                  0.48239
77    22.8       3.403299                 0.398843
153   45.6       3.146884                 0.43082
229   68.4       3.292287                 0.505992
305   91.2       3.565378                 0.544273
381   114        3.891938                 0.526071
457   136.8      4.250376                 0.457683
533   159.6      4.631304                 0.354198
609   182.4      4.848954                 0.234138
685   205.2      5.222004                 0.111009
761   228        5.636386                 -0.009401
837   250.8      6.05107                  -0.12198
913   273.6      6.485092                 -0.219003
989   296.4      6.913988                 -0.298391
1065  319.2      7.343843                 -0.363428
1141  342        7.763901                 -0.421223
1217  364.8      8.19126                  -0.467238
1293  387.6      8.607403                 -0.504519
1369  410.4      9.026474                 -0.536493
1445  433.2      9.435558                 -0.559542
1521  456        9.84585                  -0.570622
1597  478.8      10.2558                -0.576168
1673  501.6      10.661                -0.578514
1749  524.4      11.06265                 -0.582486
1825  547.2      11.4668                -0.583369
1901  570        11.8687                -0.583711
1977  592.8      12.2692                -0.585778
2053  615.6      12.6656                -0.587235
2129  638.4      13.0653                -0.58652
2205  661.2      13.4684                -0.584284
2281  684        13.8619                -0.582501
2357  706.8      14.2587                -0.583451
2433  729.6      14.66                -0.584097
2509  752.4      15.0583                -0.583258
2585  775.2      15.4469                -0.583532
2661  798        15.8424                -0.584809
2737  820.8      16.2394                -0.584188
2813  843.6      16.6426                -0.582869
2889  866.4      17.0378                -0.581404
2965  889.2      17.4294                -0.581485
3041  912        17.8307                -0.580919
3117  934.8      18.2264                -0.580406
3193  957.6      18.6194                -0.580153
3269  980.4      19.0161                -0.58197
3345  1003.2     19.41335                 -0.584203
3421  1026       19.8102                -0.580521
3497  1048.8     20.2042                -0.577931
3573  1071.6     20.5974                -0.579762
3649  1094.4     20.9938                -0.580357
3725  1117.2     21.3854                -0.578138
3801  1140       21.7822                -0.580036
3877  1162.8     22.1743                -0.578003
3953  1185.6     22.571                -0.580734
4029  1208.4     22.9632                -0.578161
4105  1231.2     23.3615                -0.577188
4181  1254       23.7553                -0.575754
4257  1276.8     24.1534                -0.576651
4333  1299.6     24.5397                -0.57407
4409  1322.4     24.9411                -0.57553
4485  1345.2     25.329                -0.57719
4561  1368       25.7286                -0.57842
4637  1390.8     26.1195                -0.578202
4713  1413.6     26.5217                -0.57732
4789  1436.4     26.9117                -0.576664
4865  1459.2     27.3105                -0.579528
4941  1482       27.7043                -0.578699
5017  1504.8     28.1061                -0.578964
5093  1527.6     28.4975                -0.578766
5169  1550.4     28.8925                -0.579888
5245  1573.2     29.2853                -0.579132
5321  1596       29.6798                -0.578797
5397  1618.8     30.072                -0.576982
5473  1641.6     30.4666                -0.576462
5549  1664.4     30.8625                -0.575111
5625  1687.2     31.2595                -0.575584
5701  1710       31.6529                -0.575854
5777  1732.8     32.049                -0.578373
5853  1755.6     32.4448                -0.577665
5929  1778.4     32.8451                -0.577937
6005  1801.2     33.2338                -0.577291
6081  1824       33.6275                -0.576791
6157  1846.8     34.0293                -0.577778
6233  1869.6     34.4268                -0.576641
6309  1892.4     34.822                -0.578156
6385  1915.2     35.2135                -0.57729
6461  1938       35.6063                -0.575718
6537  1960.8     36.0104                -0.569312
6613  1983.6     36.4085                -0.555367
6689  2006.4     36.7994                -0.547005
6765  2029.2     37.1961                -0.547727
6841  2052       37.5856                -0.547092
6917  2074.8     37.9825                -0.550497
6993  2097.6     38.3737                -0.552724
7069  2120.4     38.7714                -0.557301
7145  2143.2     39.1622                -0.556867
7221  2166       39.5585                -0.556731
7297  2188.8     39.953                -0.557945
7373  2211.6     40.3496                -0.561195
7449  2234.4     40.7354                -0.559877
7525  2257.2     41.1365                -0.560906
7601  2280       41.5281                -0.56249
7677  2302.8     41.9281                -0.56669
7753  2325.6     42.3174                -0.568661
7829  2348.4     42.7187                -0.571794
7905  2371.2     43.1071                -0.574069
7981  2394       43.5095                -0.579202
8057  2416.8     43.9009                -0.577707
8133  2439.6     44.2964                -0.580681
8209  2462.4     44.689                -0.582622
8285  2485.2     45.0822                -0.585696
8361  2508       45.4753                -0.585724
8437  2530.8     45.8716                -0.583964
8513  2553.6     46.2627                -0.582269
8589  2576.4     46.6622                -0.582684
8665  2599.2     47.0609                -0.584631
8741  2622       47.4607                -0.584804
8817  2644.8     47.8527                -0.584283
8893  2667.6     48.2436                -0.583476
8969  2690.4     48.6387                -0.582781
9045  2713.2     49.0402                -0.583121
9121  2736       49.4358                -0.581452
9197  2758.8     49.8285                -0.58086
9273  2781.6     50.2281                -0.582299
9349  2804.4     50.6273                -0.581063
9425  2827.2     51.0197                -0.582645
9501  2850       51.4146                -0.583628
9577  2872.8     51.808                -0.585975
9653  2895.6     52.1994                -0.584232
9729  2918.4     52.594                -0.581275
9805  2941.2     52.9867                -0.583649
9881  2964       53.3849                -0.585141
9957  2986.8     53.77656                 -0.584797
10033 3009.6     54.1764                -0.585681
10109 3032.4     54.56232                 -0.58581
10185 3055.2     54.961                -0.58727
10261 3078       55.3525                -0.583461
10337 3100.8     55.7506                -0.581998
10413 3123.6     56.14099                 -0.580074
10489 3146.4     56.5416                -0.58016
10565 3169.2     56.9345                -0.579112
10641 3192       57.3322                -0.579407
10717 3214.8     57.7231                -0.579156
10793 3237.6     58.1165                -0.581282
10869 3260.4     58.5071                -0.582955
10945 3283.2     58.9038                -0.581974
11021 3306       59.2955                -0.582275
11097 3328.8     59.6946                -0.583197
11173 3351.6     60.0948                -0.583427
11249 3374.4     60.4927                -0.57833
11325 3397.2     60.8858                -0.57988
11401 3420       61.2776                -0.582623
11477 3442.8     61.6723                -0.582468
11553 3465.6     62.0749                -0.576752
11629 3488.4     62.4699                -0.5746
11705 3511.2     62.8626                -0.575916
11781 3534       63.26447                 -0.578743
11857 3556.8     63.6593                -0.577447
11933 3579.6     64.0512                -0.578065
12009 3602.4     64.4433                -0.577423
12085 3625.2     64.839                -0.579415
12161 3648       65.2314                -0.577099
12237 3670.8     65.6265                -0.576494
12313 3693.6     66.0213                -0.577135
12389 3716.4     66.4168                -0.577667
12465 3739.2     66.8011                -0.578186
12541 3762       67.2018                -0.576551
12617 3784.8     67.5939                -0.575823
12693 3807.6     67.9958                -0.578475
12769 3830.4     68.3856                -0.573334
12845 3853.2     68.7839                -0.569625
12921 3876       69.1786                -0.568325
12997 3898.8     69.5717                -0.572622
13073 3921.6     69.96344                 -0.573054
13149 3944.4     70.3572                -0.570644
13225 3967.2     70.7478                -0.575806
13301 3990       71.1449                -0.57769
13377 4012.8     71.5436                -0.578951
13453 4035.6     71.9436                -0.576381
13529 4058.4     72.3305                -0.574008
13605 4081.2     72.7279                -0.573953
13681 4104       73.1304                -0.572933
13757 4126.8     73.5301                -0.572381
13833 4149.6     73.924                -0.571807
13909 4172.4     74.3188                -0.573104
13985 4195.2     74.7159                -0.57112
14061 4218       75.1075                -0.571976
14137 4240.8     75.5021                -0.56952
14213 4263.6     75.8937                -0.571378
14289 4286.4     76.2907                -0.571672
14365 4309.2     76.6833                -0.571797
14441 4332       77.0797                -0.573569
14517 4354.8     77.4663                -0.57279
14593 4377.6     77.86447                 -0.573707
14669 4400.4     78.2584                -0.570863
14745 4423.2     78.655                -0.569794
14821 4446       79.0467                -0.574656
14897 4468.8     79.4478                -0.564072
14973 4491.6     79.839                -0.567601
15001 4500       79.9884                -0.566987