File: rawdata/ww_2
H2O_H2O
Furnace temperature 	Time	HeatFlow
/°C	/s	/mW
7.77	0	0.01
6.11	26	0.07
5.34	51	0.22
5.07	77	0.29
5.02	102	0.26
5.08	128	0.20
5.21	153	0.14
5.11	179	0.08
5.18	204	0.04
5.36	230	0.01
5.59	255	-0.01
5.84	281	-0.03
6.10	306	-0.04
6.36	332	-0.05
6.61	357	-0.06
6.87	383	-0.06
7.11	408	-0.07
7.35	434	-0.07
7.59	459	-0.07
7.82	485	-0.07
8.05	510	-0.08
8.27	536	-0.08
8.50	561	-0.08
8.72	587	-0.08
8.94	612	-0.08
9.16	638	-0.08
9.38	663	-0.08
9.60	689	-0.08
9.82	714	-0.08
10.04	740	-0.08
10.25	765	-0.08
10.47	791	-0.08
10.69	816	-0.08
10.90	842	-0.08
11.12	867	-0.08
11.34	893	-0.08
11.55	918	-0.08
11.77	944	-0.08
11.98	969	-0.08
12.20	995	-0.08
12.41	1020	-0.08
12.63	1046	-0.08
12.85	1071	-0.08
13.06	1097	-0.08
13.28	1122	-0.08
13.49	1148	-0.08
13.71	1173	-0.08
13.92	1199	-0.08
14.14	1224	-0.09
14.35	1250	-0.09
14.57	1275	-0.09
14.79	1301	-0.09
15.00	1326	-0.09
15.22	1352	-0.09
15.43	1377	-0.09
15.65	1403	-0.09
15.86	1428	-0.09
16.08	1454	-0.09
16.29	1479	-0.09
16.51	1505	-0.09
16.72	1530	-0.09
16.94	1556	-0.09
17.15	1581	-0.09
17.37	1607	-0.09
17.58	1632	-0.09
17.80	1658	-0.09
18.01	1683	-0.09
18.23	1709	-0.09
18.44	1734	-0.09
18.66	1760	-0.10
18.87	1785	-0.10
19.09	1811	-0.10
19.30	1836	-0.10
19.52	1862	-0.10
19.74	1887	-0.10
19.95	1913	-0.10
20.17	1938	-0.10
20.38	1964	-0.10
20.60	1989	-0.10
20.81	2015	-0.10
21.03	2040	-0.10
21.24	2066	-0.10
21.46	2091	-0.11
21.67	2117	-0.11
21.89	2142	-0.11
22.10	2168	-0.11
22.32	2193	-0.11
22.53	2219	-0.11
22.75	2244	-0.11
22.96	2270	-0.11
23.18	2295	-0.11
23.39	2321	-0.11
23.61	2346	-0.11
23.82	2372	-0.11
24.04	2397	-0.11
24.25	2423	-0.12
24.47	2448	-0.12
24.68	2474	-0.12
24.90	2499	-0.12
25.11	2525	-0.12
25.33	2550	-0.12
25.54	2576	-0.12
25.76	2601	-0.12
25.97	2627	-0.12
26.19	2652	-0.12
26.41	2678	-0.12
26.62	2703	-0.12
26.83	2729	-0.12
27.05	2754	-0.12
27.27	2780	-0.13
27.48	2805	-0.13
27.70	2831	-0.13
27.91	2856	-0.13
28.13	2882	-0.13
28.34	2907	-0.13
28.56	2933	-0.13
28.77	2958	-0.13
28.99	2984	-0.13
29.20	3009	-0.13
29.42	3035	-0.13
29.63	3060	-0.13
29.85	3086	-0.13
30.06	3111	-0.13
30.28	3137	-0.13
30.49	3162	-0.13
30.71	3188	-0.14
30.92	3213	-0.14
31.14	3239	-0.14
31.35	3264	-0.14
31.57	3290	-0.14
31.78	3315	-0.14
32.00	3341	-0.14
32.21	3366	-0.14
32.43	3392	-0.14
32.64	3417	-0.14
32.86	3443	-0.14
33.07	3468	-0.14
33.29	3494	-0.14
33.50	3519	-0.14
33.72	3545	-0.14
33.93	3570	-0.14
34.15	3596	-0.15
34.36	3621	-0.15
34.58	3647	-0.15
34.80	3672	-0.15
35.01	3698	-0.15
35.22	3723	-0.15
35.44	3749	-0.15
35.65	3774	-0.15
35.87	3800	-0.15
36.09	3825	-0.15
36.30	3851	-0.15
36.52	3876	-0.15
36.73	3902	-0.15
36.95	3927	-0.15
37.16	3953	-0.15
37.38	3978	-0.15
37.59	4004	-0.15
37.81	4029	-0.15
38.02	4055	-0.15
38.24	4080	-0.15
38.45	4106	-0.15
38.67	4131	-0.15
38.88	4157	-0.16
39.10	4182	-0.15
39.31	4208	-0.15
39.53	4233	-0.16
39.74	4259	-0.16
39.96	4284	-0.16
40.17	4310	-0.16
40.39	4335	-0.16
40.60	4361	-0.16
40.82	4386	-0.16
41.03	4412	-0.16
41.25	4437	-0.16
41.46	4463	-0.16
41.68	4488	-0.15
41.89	4514	-0.15
42.11	4539	-0.16
42.32	4565	-0.16
42.54	4590	-0.16
42.75	4616	-0.16
42.98	4641	-0.16
43.20	4667	-0.16
43.41	4692	-0.16
43.62	4718	-0.16
43.83	4743	-0.16
44.05	4769	-0.16
44.26	4794	-0.16
44.48	4820	-0.16
44.69	4845	-0.17
44.91	4871	-0.16
45.12	4896	-0.16
45.33	4922	-0.16
45.55	4947	-0.16
45.76	4973	-0.16
45.97	4998	-0.16
46.18	5024	-0.16
46.40	5049	-0.16
46.62	5075	-0.16
46.84	5100	-0.16
47.05	5126	-0.16
47.28	5151	-0.16
47.49	5177	-0.17
47.71	5202	-0.16
47.92	5228	-0.16
48.14	5253	-0.16
48.35	5279	-0.16
48.56	5304	-0.16
48.77	5330	-0.16
48.99	5355	-0.16
49.20	5381	-0.17
49.42	5406	-0.16
49.64	5432	-0.16
49.85	5457	-0.17
50.07	5483	-0.16
50.28	5508	-0.16
50.50	5534	-0.16
50.71	5559	-0.16
50.93	5585	-0.16
51.14	5610	-0.16
51.35	5636	-0.16
51.57	5661	-0.16
51.78	5687	-0.16
52.00	5712	-0.16
52.22	5738	-0.16
52.43	5763	-0.16
52.65	5789	-0.16
52.86	5814	-0.16
53.08	5840	-0.16
53.30	5865	-0.16
53.51	5891	-0.16
53.72	5916	-0.17
53.94	5942	-0.17
54.15	5967	-0.17
54.37	5993	-0.17
54.59	6018	-0.16
54.80	6044	-0.16
55.01	6069	-0.16
55.23	6095	-0.16
55.44	6120	-0.16
55.65	6146	-0.16
55.87	6171	-0.16
56.09	6197	-0.16
56.30	6222	-0.16
56.52	6248	-0.17
56.73	6273	-0.16
56.95	6299	-0.17
57.16	6324	-0.17
57.38	6350	-0.16
57.59	6375	-0.16
57.81	6401	-0.16
58.03	6426	-0.17
58.24	6452	-0.16
58.45	6477	-0.16
58.67	6503	-0.16
58.88	6528	-0.16
59.10	6554	-0.16
59.32	6579	-0.16
59.53	6605	-0.16
59.74	6630	-0.16
59.96	6656	-0.16
60.17	6681	-0.16
60.39	6707	-0.16
60.60	6732	-0.16
60.82	6758	-0.16
61.03	6783	-0.16
61.25	6809	-0.16
61.46	6834	-0.16
61.68	6860	-0.17
61.89	6885	-0.17
62.11	6911	-0.17
62.33	6936	-0.16
62.54	6962	-0.16
62.76	6987	-0.16
62.97	7013	-0.16
63.19	7038	-0.16
63.40	7064	-0.16
63.61	7089	-0.16
63.83	7115	-0.16
64.04	7140	-0.16
64.26	7166	-0.16
64.47	7191	-0.16
64.55	7200	-0.16