File: rawdata/ww_5
H2O_H2O
Furnace temperature 	Time	HeatFlow
/°C	/s	/mW
64.93	0	-0.16
66.87	11	-0.18
67.93	21	-0.28
67.86	32	-0.40
67.86	42	-0.51
67.76	53	-0.59
67.63	63	-0.65
67.49	74	-0.69
67.32	84	-0.70
67.15	95	-0.68
66.97	105	-0.66
66.78	116	-0.62
66.59	126	-0.59
66.39	137	-0.56
66.19	147	-0.53
65.99	158	-0.49
65.90	168	-0.46
65.69	179	-0.41
65.51	189	-0.37
65.31	200	-0.32
65.10	210	-0.27
64.89	221	-0.21
64.68	231	-0.16
64.47	242	-0.12
64.25	252	-0.08
64.03	263	-0.04
63.81	273	0.00
63.60	284	0.03
63.38	294	0.06
63.16	305	0.09
62.94	315	0.12
62.72	326	0.14
62.51	336	0.16
62.29	347	0.18
62.07	357	0.19
61.85	368	0.21
61.64	378	0.22
61.42	389	0.23
61.20	399	0.24
60.99	410	0.25
60.77	420	0.26
60.55	431	0.27
60.34	441	0.28
60.12	452	0.28
59.91	462	0.29
59.69	473	0.29
59.48	483	0.30
59.26	494	0.30
59.05	504	0.30
58.83	515	0.31
58.62	525	0.31
58.40	536	0.31
58.19	546	0.31
57.97	557	0.31
57.76	567	0.31
57.55	578	0.31
57.33	588	0.31
57.12	599	0.32
56.90	609	0.31
56.69	620	0.31
56.48	630	0.32
56.26	641	0.31
56.05	651	0.32
55.84	662	0.32
55.62	672	0.31
55.41	683	0.31
55.20	693	0.31
54.98	704	0.31
54.77	714	0.31
54.56	725	0.31
54.34	735	0.31
54.13	746	0.30
53.92	756	0.31
53.71	767	0.31
53.49	777	0.31
53.28	788	0.30
53.07	798	0.30
52.86	809	0.30
52.64	819	0.30
52.43	830	0.30
52.22	840	0.29
52.00	851	0.29
51.79	861	0.29
51.58	872	0.29
51.37	882	0.29
51.15	893	0.29
50.94	903	0.29
50.73	914	0.29
50.52	924	0.29
50.30	935	0.29
50.09	945	0.29
49.88	956	0.29
49.67	966	0.29
49.45	977	0.28
49.24	987	0.28
49.03	998	0.28
48.82	1008	0.28
48.60	1019	0.28
48.39	1029	0.28
48.18	1040	0.28
47.96	1050	0.27
47.75	1061	0.27
47.54	1071	0.27
47.33	1082	0.27
47.11	1092	0.27
46.90	1103	0.27
46.69	1113	0.27
46.48	1124	0.27
46.26	1134	0.27
46.05	1145	0.27
45.84	1155	0.27
45.63	1166	0.26
45.41	1176	0.26
45.20	1187	0.26
44.99	1197	0.26
44.78	1208	0.26
44.56	1218	0.26
44.35	1229	0.26
44.14	1239	0.25
43.92	1250	0.26
43.71	1260	0.25
43.50	1271	0.25
43.29	1281	0.25
43.08	1292	0.25
42.86	1302	0.25
42.65	1313	0.25
42.44	1323	0.25
42.23	1334	0.25
42.01	1344	0.24
41.80	1355	0.24
41.59	1365	0.24
41.38	1376	0.24
41.16	1386	0.24
40.95	1397	0.24
40.74	1407	0.23
40.52	1418	0.23
40.31	1428	0.23
40.10	1439	0.23
39.89	1449	0.23
39.68	1460	0.23
39.46	1470	0.23
39.25	1481	0.23
39.04	1491	0.23
38.83	1502	0.23
38.61	1512	0.23
38.40	1523	0.23
38.19	1533	0.22
37.97	1544	0.22
37.76	1554	0.22
37.55	1565	0.22
37.33	1575	0.21
37.12	1586	0.22
36.91	1596	0.21
36.70	1607	0.21
36.48	1617	0.21
36.27	1628	0.21
36.06	1638	0.21
35.85	1649	0.21
35.63	1659	0.21
35.42	1670	0.21
35.21	1680	0.21
35.00	1691	0.20
34.78	1701	0.20
34.57	1712	0.20
34.36	1722	0.20
34.15	1733	0.20
33.94	1743	0.20
33.72	1754	0.20
33.51	1764	0.20
33.30	1775	0.20
33.09	1785	0.20
32.87	1796	0.20
32.66	1806	0.20
32.45	1817	0.19
32.24	1827	0.19
32.03	1838	0.19
31.81	1848	0.19
31.60	1859	0.19
31.39	1869	0.19
31.18	1880	0.19
30.97	1890	0.19
30.75	1901	0.18
30.54	1911	0.18
30.33	1922	0.18
30.12	1932	0.18
29.90	1943	0.18
29.69	1953	0.18
29.48	1964	0.18
29.27	1974	0.18
29.05	1985	0.18
28.84	1995	0.18
28.63	2006	0.18
28.42	2016	0.18
28.20	2027	0.17
27.99	2037	0.17
27.78	2048	0.17
27.57	2058	0.17
27.36	2069	0.17
27.14	2079	0.17
26.93	2090	0.17
26.72	2100	0.17
26.51	2111	0.17
26.29	2121	0.16
26.08	2132	0.16
25.87	2142	0.16
25.66	2153	0.16
25.44	2163	0.16
25.23	2174	0.16
25.02	2184	0.16
24.81	2195	0.15
24.60	2205	0.16
24.38	2216	0.15
24.17	2226	0.15
23.96	2237	0.15
23.75	2247	0.15
23.53	2258	0.15
23.32	2268	0.15
23.11	2279	0.15
22.90	2289	0.14
22.69	2300	0.14
22.48	2310	0.14
22.26	2321	0.15
22.05	2331	0.14
21.84	2342	0.14
21.63	2352	0.14
21.42	2363	0.14
21.20	2373	0.14
20.99	2384	0.14
20.78	2394	0.14
20.57	2405	0.14
20.36	2415	0.14
20.14	2426	0.13
19.93	2436	0.14
19.72	2447	0.13
19.51	2457	0.13
19.30	2468	0.13
19.08	2478	0.13
18.87	2489	0.13
18.66	2499	0.13
18.45	2510	0.13
18.24	2520	0.13
18.02	2531	0.13
17.81	2541	0.13
17.60	2552	0.13
17.39	2562	0.13
17.18	2573	0.12
16.97	2583	0.12
16.75	2594	0.12
16.54	2604	0.12
16.33	2615	0.12
16.12	2625	0.12
15.91	2636	0.12
15.70	2646	0.12
15.49	2657	0.11
15.28	2667	0.12
15.06	2678	0.11
14.85	2688	0.11
14.64	2699	0.11
14.43	2709	0.11
14.22	2720	0.11
14.01	2730	0.11
13.80	2741	0.11
13.59	2751	0.11
13.38	2762	0.11
13.17	2772	0.10
12.95	2783	0.10
12.74	2793	0.10
12.53	2804	0.10
12.32	2814	0.10
12.11	2825	0.10
11.90	2835	0.10
11.69	2846	0.10
11.48	2856	0.10
11.27	2867	0.09
11.06	2877	0.09
10.85	2888	0.09
10.65	2898	0.10
10.44	2909	0.09
10.23	2919	0.10
10.02	2930	0.10
9.81	2940	0.10
9.60	2951	0.10
9.40	2961	0.10
9.19	2972	0.11
8.99	2982	0.11
8.78	2993	0.11
8.64	3000	0.11